# %ECSV 1.0
# ---
# datatype:
# - {name: WAV, unit: Angstrom, datatype: float32}
# - {name: EFF, unit: electron / ph, datatype: float64}
# - {name: EFF_UNC, datatype: float64}
# meta: !!omap
# - {CWAV: '5000'}
# - {FILTER: GG400}
# - {GRATING: 900ZD}
# - {GRISM: none}
# - {MODE: spectroscopic}
# schema: astropy-2.0
WAV EFF EFF_UNC
4000.32 0.04688 0.0017
4002.96 0.0473 0.0017
4006.04 0.04779 0.0017
4008.68 0.04821 0.0017
4011.32 0.04863 0.0017
4014.4 0.04912 0.0017
4017.04 0.04954 0.0017
4019.68 0.04995 0.00169
4022.76 0.05044 0.00169
4025.4 0.05086 0.00169
4028.48 0.05134 0.00169
4031.12 0.05176 0.00169
4033.76 0.05217 0.00169
4036.84 0.05266 0.00169
4039.48 0.05307 0.00169
4042.12 0.05349 0.00168
4045.2 0.05397 0.00168
4047.84 0.05438 0.00168
4050.48 0.05479 0.00168
4053.56 0.05527 0.00168
4056.2 0.05568 0.00168
4058.84 0.05609 0.00168
4061.92 0.05657 0.00168
4064.56 0.05698 0.00168
4067.64 0.05746 0.00167
4070.28 0.05786 0.00167
4072.92 0.05827 0.00167
4076.0 0.05875 0.00167
4078.64 0.05915 0.00167
4081.28 0.05956 0.00167
4084.36 0.06003 0.00167
4087.0 0.06044 0.00167
4089.64 0.06084 0.00167
4092.72 0.06131 0.00167
4095.36 0.06171 0.00167
4098.0 0.06212 0.00167
4101.08 0.06258 0.00167
4103.72 0.06299 0.00166
4106.36 0.06339 0.00166
4109.44 0.06385 0.00166
4112.08 0.06425 0.00166
4115.16 0.06472 0.00166
4117.8 0.06512 0.00166
4120.44 0.06551 0.00166
4123.52 0.06598 0.00166
4126.16 0.06637 0.00166
4128.8 0.06677 0.00166
4131.88 0.06723 0.00166
4134.52 0.06763 0.00166
4137.16 0.06802 0.00166
4140.24 0.06848 0.00166
4142.88 0.06888 0.00166
4145.52 0.06927 0.00166
4148.6 0.06973 0.00166
4151.24 0.07012 0.00166
4154.32 0.07057 0.00165
4156.96 0.07097 0.00165
4159.6 0.07136 0.00165
4162.68 0.07181 0.00165
4165.32 0.0722 0.00165
4167.96 0.07259 0.00165
4171.04 0.07304 0.00165
4173.68 0.07343 0.00165
4176.32 0.07381 0.00165
4179.4 0.07426 0.00165
4182.04 0.07465 0.00165
4184.68 0.07504 0.00165
4187.76 0.07548 0.00165
4190.4 0.07587 0.00165
4193.04 0.07625 0.00165
4196.12 0.0767 0.00165
4198.76 0.07708 0.00165
4201.84 0.07753 0.00165
4204.48 0.07791 0.00165
4207.12 0.07829 0.00165
4210.2 0.07873 0.00165
4212.84 0.07911 0.00165
4215.48 0.07949 0.00165
4218.56 0.07993 0.00165
4221.2 0.08031 0.00165
4223.84 0.08069 0.00165
4226.92 0.08113 0.00165
4229.56 0.0815 0.00165
4232.2 0.08188 0.00165
4235.28 0.08232 0.00165
4237.92 0.08269 0.00165
4241.0 0.08313 0.00165
4243.64 0.0835 0.00165
4246.28 0.08388 0.00165
4249.36 0.08431 0.00165
4252.0 0.08468 0.00165
4254.64 0.08505 0.00165
4257.72 0.08549 0.00165
4260.36 0.08586 0.00165
4263.0 0.08623 0.00165
4266.08 0.08666 0.00165
4268.72 0.08703 0.00165
4271.36 0.08739 0.00165
4274.44 0.08782 0.00165
4277.08 0.08819 0.00165
4280.16 0.08862 0.00165
4282.8 0.08898 0.00165
4285.44 0.08935 0.00165
4288.52 0.08978 0.00166
4291.16 0.09014 0.00166
4293.8 0.0905 0.00166
4296.88 0.09093 0.00166
4299.52 0.09129 0.00166
4302.16 0.09165 0.00166
4305.24 0.09207 0.00166
4307.88 0.09244 0.00166
4310.52 0.0928 0.00166
4313.6 0.09322 0.00166
4316.24 0.09358 0.00166
4318.88 0.09394 0.00166
4321.96 0.09435 0.00166
4324.6 0.09471 0.00166
4327.68 0.09513 0.00166
4330.32 0.09548 0.00166
4332.96 0.09584 0.00166
4336.04 0.09626 0.00167
4338.68 0.09661 0.00167
4341.32 0.09697 0.00167
4344.4 0.09738 0.00167
4347.04 0.09773 0.00167
4349.68 0.09809 0.00167
4352.76 0.0985 0.00167
4355.4 0.09885 0.00167
4358.04 0.0992 0.00167
4361.12 0.09961 0.00167
4363.76 0.09996 0.00167
4366.84 0.10037 0.00168
4369.48 0.10072 0.00168
4372.12 0.10107 0.00168
4375.2 0.10147 0.00168
4377.84 0.10182 0.00168
4380.48 0.10217 0.00168
4383.56 0.10257 0.00168
4386.2 0.10292 0.00168
4388.84 0.10326 0.00168
4391.92 0.10367 0.00169
4394.56 0.10401 0.00169
4397.2 0.10435 0.00169
4400.28 0.10475 0.00169
4402.92 0.1051 0.00169
4405.56 0.10544 0.00169
4408.64 0.10584 0.00169
4411.28 0.10618 0.0017
4414.36 0.10658 0.0017
4417.0 0.10692 0.0017
4419.64 0.10726 0.0017
4422.72 0.10765 0.0017
4425.36 0.10799 0.0017
4428.0 0.10833 0.0017
4431.08 0.10872 0.00171
4433.72 0.10906 0.00171
4436.36 0.1094 0.00171
4439.44 0.10979 0.00171
4442.08 0.11012 0.00171
4444.72 0.11046 0.00171
4447.8 0.11085 0.00172
4450.44 0.11118 0.00172
4453.52 0.11157 0.00172
4456.16 0.1119 0.00172
4458.8 0.11224 0.00172
4461.88 0.11262 0.00173
4464.52 0.11296 0.00173
4467.16 0.11329 0.00173
4470.24 0.11367 0.00173
4472.88 0.114 0.00173
4475.52 0.11433 0.00174
4478.6 0.11471 0.00174
4481.24 0.11504 0.00174
4483.88 0.11537 0.00174
4486.96 0.11575 0.00175
4489.6 0.11608 0.00175
4492.24 0.1164 0.00175
4495.32 0.11678 0.00175
4497.96 0.11711 0.00176
4501.04 0.11749 0.00176
4503.68 0.11781 0.00176
4506.32 0.11813 0.00176
4509.4 0.11851 0.00177
4512.04 0.11883 0.00177
4514.68 0.11915 0.00177
4517.76 0.11953 0.00177
4520.4 0.11985 0.00178
4523.04 0.12017 0.00178
4526.12 0.12054 0.00178
4528.76 0.12086 0.00178
4531.4 0.12118 0.00179
4534.48 0.12155 0.00179
4537.12 0.12187 0.00179
4540.2 0.12224 0.0018
4542.84 0.12255 0.0018
4545.48 0.12287 0.0018
4548.56 0.12324 0.00181
4551.2 0.12355 0.00181
4553.84 0.12387 0.00181
4556.92 0.12423 0.00182
4559.56 0.12455 0.00182
4562.2 0.12486 0.00182
4565.28 0.12522 0.00183
4567.92 0.12553 0.00183
4570.56 0.12585 0.00183
4573.64 0.12621 0.00184
4576.28 0.12652 0.00184
4578.92 0.12683 0.00184
4582.0 0.12719 0.00185
4584.64 0.1275 0.00185
4587.72 0.12786 0.00185
4590.36 0.12817 0.00186
4593.0 0.12847 0.00186
4596.08 0.12883 0.00186
4598.72 0.12914 0.00187
4601.36 0.12944 0.00187
4604.44 0.1298 0.00188
4607.08 0.1301 0.00188
4609.72 0.13041 0.00188
4612.8 0.13076 0.00189
4615.44 0.13106 0.00189
4618.08 0.13137 0.0019
4621.16 0.13172 0.0019
4623.8 0.13202 0.0019
4626.88 0.13237 0.00191
4629.52 0.13267 0.00191
4632.16 0.13297 0.00192
4635.24 0.13332 0.00192
4637.88 0.13362 0.00193
4640.52 0.13392 0.00193
4643.6 0.13426 0.00193
4646.24 0.13456 0.00194
4648.88 0.13486 0.00194
4651.96 0.1352 0.00195
4654.6 0.13549 0.00195
4657.24 0.13577 0.00196
4660.32 0.13611 0.00196
4662.96 0.1364 0.00197
4665.6 0.13669 0.00197
4668.68 0.13703 0.00197
4671.32 0.13732 0.00198
4674.4 0.13766 0.00198
4677.04 0.13794 0.00199
4679.68 0.13823 0.00199
4682.76 0.13857 0.002
4685.4 0.13886 0.002
4688.04 0.13915 0.00201
4691.12 0.13949 0.00201
4693.76 0.13978 0.00202
4696.4 0.14007 0.00202
4699.48 0.1404 0.00203
4702.12 0.14069 0.00204
4704.76 0.14098 0.00204
4707.84 0.14132 0.00205
4710.48 0.14161 0.00205
4713.56 0.14195 0.00206
4716.2 0.14224 0.00206
4718.84 0.14253 0.00207
4721.92 0.14286 0.00208
4724.56 0.14315 0.00208
4727.2 0.14344 0.00209
4730.28 0.14377 0.00209
4732.92 0.14405 0.0021
4735.56 0.14433 0.0021
4738.64 0.14466 0.00211
4741.28 0.14494 0.00212
4743.92 0.14522 0.00212
4747.0 0.14555 0.00213
4749.64 0.14582 0.00213
4752.28 0.1461 0.00214
4755.36 0.14643 0.00215
4758.0 0.1467 0.00215
4761.08 0.14703 0.00216
4763.72 0.1473 0.00216
4766.36 0.14758 0.00217
4769.44 0.1479 0.00218
4772.08 0.14817 0.00218
4774.72 0.14845 0.00219
4777.8 0.14876 0.0022
4780.44 0.14904 0.0022
4783.08 0.14931 0.00221
4786.16 0.14963 0.00222
4788.8 0.1499 0.00222
4791.44 0.15017 0.00223
4794.52 0.15048 0.00224
4797.16 0.15075 0.00224
4800.24 0.15107 0.00225
4802.88 0.15134 0.00226
4805.52 0.15161 0.00226
4808.6 0.15192 0.00227
4811.24 0.15219 0.00228
4813.88 0.15245 0.00228
4816.96 0.15276 0.00229
4819.6 0.15303 0.0023
4822.24 0.15329 0.0023
4825.32 0.15359 0.00231
4827.96 0.15385 0.00232
4830.6 0.1541 0.00232
4833.68 0.1544 0.00233
4836.32 0.15466 0.00234
4839.4 0.15495 0.00235
4842.04 0.15521 0.00235
4844.68 0.15547 0.00236
4847.76 0.15576 0.00237
4850.4 0.15602 0.00237
4853.04 0.15627 0.00238
4856.12 0.15657 0.00239
4858.76 0.15683 0.0024
4861.4 0.15708 0.0024
4864.48 0.15738 0.00241
4867.12 0.15764 0.00242
4869.76 0.15789 0.00243
4872.84 0.15819 0.00243
4875.48 0.15845 0.00244
4878.12 0.1587 0.00245
4881.2 0.159 0.00246
4883.84 0.15925 0.00246
4886.92 0.15955 0.00247
4889.56 0.15981 0.00248
4892.2 0.16006 0.00249
4895.28 0.16036 0.0025
4897.92 0.16062 0.0025
4900.56 0.16087 0.00251
4903.64 0.16117 0.00252
4906.28 0.16143 0.00253
4908.92 0.16168 0.00254
4912.0 0.16198 0.00255
4914.64 0.16223 0.00255
4917.28 0.16249 0.00256
4920.36 0.16279 0.00257
4923.0 0.16304 0.00258
4926.08 0.16334 0.00259
4928.72 0.1636 0.0026
4931.36 0.16385 0.0026
4934.44 0.16414 0.00261
4937.08 0.16438 0.00262
4939.72 0.16463 0.00263
4942.8 0.16491 0.00264
4945.44 0.16516 0.00265
4948.08 0.1654 0.00265
4951.16 0.16568 0.00266
4953.8 0.16592 0.00267
4956.44 0.16617 0.00268
4959.52 0.16645 0.00269
4962.16 0.16669 0.0027
4964.8 0.16693 0.00271
4967.88 0.16721 0.00272
4970.52 0.16745 0.00272
4973.6 0.16772 0.00273
4976.24 0.16796 0.00274
4978.88 0.1682 0.00275
4981.96 0.16848 0.00276
4984.6 0.16871 0.00277
4987.24 0.16895 0.00278
4990.32 0.16923 0.00279
4992.96 0.16946 0.0028
5005.72 0.17059 0.00284
5008.8 0.17086 0.00285
5011.44 0.17109 0.00286
5014.08 0.17133 0.00286
5017.16 0.1716 0.00287
5019.8 0.17183 0.00288
5022.88 0.17209 0.00289
5025.52 0.17232 0.0029
5028.16 0.17255 0.00291
5031.24 0.17282 0.00292
5033.88 0.17305 0.00293
5036.52 0.17328 0.00294
5039.6 0.17354 0.00295
5042.24 0.17377 0.00296
5044.88 0.17399 0.00297
5047.96 0.17426 0.00298
5050.6 0.17448 0.00299
5053.24 0.17471 0.003
5056.32 0.17497 0.00301
5058.96 0.17519 0.00302
5061.6 0.17542 0.00302
5064.68 0.17568 0.00303
5067.32 0.1759 0.00304
5070.4 0.17616 0.00305
5073.04 0.17638 0.00306
5075.68 0.1766 0.00307
5078.76 0.17686 0.00308
5081.4 0.17708 0.00309
5084.04 0.1773 0.0031
5087.12 0.17755 0.00311
5089.76 0.17777 0.00312
5092.4 0.17799 0.00313
5095.48 0.17824 0.00314
5098.12 0.17846 0.00315
5100.76 0.17868 0.00316
5103.84 0.17893 0.00317
5106.48 0.17914 0.00318
5109.56 0.17939 0.00319
5112.2 0.17961 0.0032
5114.84 0.17982 0.00321
5117.92 0.18007 0.00322
5120.56 0.18029 0.00323
5123.2 0.1805 0.00324
5126.28 0.18075 0.00325
5128.92 0.18096 0.00326
5131.56 0.18117 0.00327
5134.64 0.18142 0.00328
5137.28 0.18163 0.00329
5139.92 0.18184 0.0033
5143.0 0.18208 0.00331
5145.64 0.18229 0.00332
5148.28 0.1825 0.00333
5151.36 0.18274 0.00334
5154.0 0.18295 0.00335
5157.08 0.18319 0.00336
5159.72 0.1834 0.00337
5162.36 0.1836 0.00338
5165.44 0.18384 0.00339
5168.08 0.18405 0.0034
5170.72 0.18425 0.00341
5173.8 0.18449 0.00342
5176.44 0.18469 0.00343
5179.08 0.1849 0.00344
5182.16 0.18513 0.00346
5184.8 0.18534 0.00347
5187.44 0.18554 0.00348
5190.52 0.18577 0.00349
5193.16 0.18598 0.0035
5196.24 0.18621 0.00351
5198.88 0.18641 0.00352
5201.52 0.18661 0.00353
5204.6 0.18684 0.00354
5207.24 0.18704 0.00355
5209.88 0.18724 0.00356
5212.96 0.18747 0.00357
5215.6 0.18767 0.00358
5218.24 0.18786 0.00359
5221.32 0.18809 0.0036
5223.96 0.18829 0.00361
5226.6 0.18848 0.00362
5229.68 0.18871 0.00363
5232.32 0.1889 0.00364
5234.96 0.1891 0.00365
5238.04 0.18932 0.00367
5240.68 0.18952 0.00368
5243.76 0.18974 0.00369
5246.4 0.18993 0.0037
5249.04 0.19013 0.00371
5252.12 0.19035 0.00372
5254.76 0.19054 0.00373
5257.4 0.19073 0.00374
5260.48 0.19095 0.00375
5263.12 0.19114 0.00376
5265.76 0.19133 0.00377
5268.84 0.19155 0.00378
5271.48 0.19174 0.00379
5274.12 0.19192 0.0038
5277.2 0.19214 0.00382
5279.84 0.19233 0.00383
5282.92 0.19255 0.00384
5285.56 0.19273 0.00385
5288.2 0.19292 0.00386
5291.28 0.19313 0.00387
5293.92 0.19332 0.00388
5296.56 0.1935 0.00389
5299.64 0.19371 0.0039
5302.28 0.1939 0.00391
5304.92 0.19408 0.00392
5308.0 0.19429 0.00393
5310.64 0.19447 0.00394
5313.28 0.19465 0.00396
5316.36 0.19486 0.00397
5319.0 0.19504 0.00398
5321.64 0.19522 0.00399
5324.72 0.19543 0.004
5327.36 0.19561 0.00401
5330.44 0.19582 0.00402
5333.08 0.196 0.00403
5335.72 0.19616 0.00404
5338.8 0.19636 0.00405
5341.44 0.19652 0.00406
5344.08 0.19669 0.00407
5347.16 0.19688 0.00409
5349.8 0.19705 0.0041
5352.44 0.19721 0.00411
5355.52 0.19741 0.00412
5358.16 0.19757 0.00413
5360.8 0.19774 0.00414
5363.88 0.19793 0.00415
5366.52 0.1981 0.00416
5369.6 0.19829 0.00417
5372.24 0.19846 0.00418
5374.88 0.19863 0.00419
5377.96 0.19882 0.0042
5380.6 0.19899 0.00421
5383.24 0.19915 0.00422
5386.32 0.19935 0.00424
5388.96 0.19951 0.00425
5391.6 0.19968 0.00426
5394.68 0.19987 0.00427
5397.32 0.20004 0.00428
5399.96 0.2002 0.00429
5403.04 0.2004 0.0043
5405.68 0.20056 0.00431
5408.76 0.20076 0.00432
5411.4 0.20092 0.00433
5414.04 0.20109 0.00434
5417.12 0.20128 0.00436
5419.76 0.20145 0.00437
5422.4 0.20162 0.00438
5425.48 0.20181 0.00439
5428.12 0.20198 0.0044
5430.76 0.20214 0.00441
5433.84 0.20234 0.00442
5436.48 0.2025 0.00443
5439.12 0.20267 0.00444
5442.2 0.20286 0.00446
5444.84 0.20303 0.00447
5447.48 0.20319 0.00448
5450.56 0.20339 0.00449
5453.2 0.20355 0.0045
5456.28 0.20375 0.00451
5458.92 0.20391 0.00452
5461.56 0.20408 0.00453
5464.64 0.20427 0.00455
5467.28 0.20444 0.00456
5469.92 0.20461 0.00457
5473.0 0.2048 0.00458
5475.64 0.20495 0.00459
5478.28 0.20511 0.0046
5481.36 0.20529 0.00461
5484.0 0.20544 0.00462
5486.64 0.20559 0.00463
5489.72 0.20577 0.00464
5492.36 0.20592 0.00465
5495.44 0.2061 0.00467
5498.08 0.20625 0.00468
5500.72 0.2064 0.00469
5503.8 0.20658 0.0047
5506.44 0.20673 0.00471
5509.08 0.20688 0.00472
5512.16 0.20705 0.00473
5514.8 0.2072 0.00474
5517.44 0.20734 0.00475
5520.52 0.20752 0.00476
5523.16 0.20766 0.00477
5525.8 0.20781 0.00478
5528.88 0.20798 0.0048
5531.52 0.20813 0.00481
5534.16 0.20827 0.00482
5537.24 0.20844 0.00483
5539.88 0.20859 0.00484
5542.96 0.20875 0.00485
5545.6 0.2089 0.00486
5548.24 0.20904 0.00487
5551.32 0.20921 0.00488
5553.96 0.20935 0.00489
5556.6 0.20949 0.0049
5559.68 0.20965 0.00492
5562.32 0.2098 0.00493
5564.96 0.20994 0.00494
5568.04 0.2101 0.00495
5570.68 0.21024 0.00496
5573.32 0.21038 0.00497
5576.4 0.21054 0.00498
5579.04 0.21068 0.00499
5582.12 0.21084 0.005
5584.76 0.21098 0.00501
5587.4 0.21111 0.00502
5590.48 0.21127 0.00503
5593.12 0.21141 0.00504
5595.76 0.21154 0.00505
5598.84 0.2117 0.00506
5601.48 0.21183 0.00507
5604.12 0.21197 0.00508
5607.2 0.21213 0.0051
5609.84 0.21226 0.00511
5612.48 0.21239 0.00512
5615.56 0.21255 0.00513
5618.2 0.21268 0.00514
5620.84 0.21281 0.00515
5623.92 0.21296 0.00516
5626.56 0.21309 0.00517
5629.64 0.21325 0.00518
5632.28 0.21338 0.00519
5634.92 0.2135 0.0052
5638.0 0.21366 0.00521
5640.64 0.21378 0.00522
5643.28 0.21391 0.00523
5646.36 0.21406 0.00524
5649.0 0.21419 0.00525
5651.64 0.21431 0.00526
5654.72 0.21446 0.00527
5657.36 0.21459 0.00528
5660.0 0.21471 0.00529
5663.08 0.21486 0.00531
5665.72 0.21498 0.00532
5668.8 0.21513 0.00533
5671.44 0.21525 0.00534
5674.08 0.21538 0.00535
5677.16 0.21552 0.00536
5679.8 0.21564 0.00537
5682.44 0.21576 0.00538
5685.52 0.21591 0.00539
5688.16 0.21603 0.0054
5690.8 0.21615 0.00541
5693.88 0.21629 0.00542
5696.52 0.21641 0.00543
5699.16 0.21653 0.00544
5702.24 0.21667 0.00545
5704.88 0.21679 0.00546
5707.52 0.2169 0.00547
5710.6 0.21704 0.00548
5713.24 0.21716 0.00549
5716.32 0.21729 0.0055
5718.96 0.21741 0.00551
5721.6 0.21753 0.00552
5724.68 0.21766 0.00553
5727.32 0.21778 0.00554
5729.96 0.21789 0.00555
5733.04 0.21803 0.00556
5735.68 0.21814 0.00557
5738.32 0.21825 0.00558
5741.4 0.21838 0.00559
5744.04 0.2185 0.0056
5746.68 0.21861 0.00561
5749.76 0.21874 0.00562
5752.4 0.21885 0.00563
5755.48 0.21898 0.00564
5758.12 0.21909 0.00565
5760.76 0.2192 0.00566
5763.84 0.21933 0.00567
5766.48 0.21944 0.00568
5769.12 0.21955 0.00569
5772.2 0.21967 0.0057
5774.84 0.21978 0.00571
5777.48 0.21989 0.00571
5780.56 0.22001 0.00572
5783.2 0.22012 0.00573
5785.84 0.22023 0.00574
5788.92 0.22035 0.00575
5791.56 0.22046 0.00576
5794.2 0.22056 0.00577
5797.28 0.22068 0.00578
5799.92 0.22079 0.00579
5803.0 0.22091 0.0058
5805.64 0.22101 0.00581
5808.28 0.22111 0.00582
5811.36 0.22123 0.00583
5814.0 0.22134 0.00584
5816.64 0.22144 0.00585
5819.72 0.22155 0.00586
5822.36 0.22166 0.00587
5825.0 0.22176 0.00587
5828.08 0.22187 0.00588
5830.72 0.22197 0.00589
5833.36 0.22207 0.0059
5836.44 0.22219 0.00591
5839.08 0.22228 0.00592
5842.16 0.2224 0.00593
5844.8 0.2225 0.00594
5847.44 0.22259 0.00595
5850.52 0.22271 0.00596
5853.16 0.2228 0.00597
5855.8 0.2229 0.00598
5858.88 0.22301 0.00599
5861.52 0.2231 0.00599
5864.16 0.2232 0.006
5867.24 0.22331 0.00601
5869.88 0.2234 0.00602
5872.52 0.22349 0.00603
5875.6 0.2236 0.00604
5878.24 0.2237 0.00605
5880.88 0.22379 0.00605
5883.96 0.22389 0.00606
5886.6 0.22399 0.00607
5889.68 0.22409 0.00608
5892.32 0.22418 0.00609
5894.96 0.22427 0.0061
5898.04 0.22438 0.00611
5900.68 0.22446 0.00612
5903.32 0.22455 0.00612
5906.4 0.22466 0.00613
5909.04 0.22474 0.00614
5911.68 0.22483 0.00615
5914.76 0.22493 0.00616
5917.4 0.22502 0.00617
5920.04 0.22511 0.00618
5923.12 0.22521 0.00618
5925.76 0.22529 0.00619
5928.84 0.22539 0.0062
5931.48 0.22547 0.00621
5934.12 0.22556 0.00622
5937.2 0.22566 0.00623
5939.84 0.22574 0.00623
5942.48 0.22582 0.00624
5945.56 0.22592 0.00625
5948.2 0.226 0.00626
5950.84 0.22608 0.00627
5953.92 0.22618 0.00628
5956.56 0.22626 0.00628
5959.2 0.22634 0.00629
5962.28 0.22643 0.0063
5964.92 0.22651 0.00631
5968.0 0.2266 0.00632
5970.64 0.22668 0.00632
5973.28 0.22676 0.00633
5976.36 0.22685 0.00634
5979.0 0.22693 0.00635
5981.64 0.22701 0.00635
5984.72 0.2271 0.00636
5987.36 0.22717 0.00637
5990.0 0.22725 0.00638
5993.08 0.22734 0.00639
5995.72 0.22741 0.00639
5998.36 0.22749 0.0064
6001.44 0.22757 0.00641
6004.08 0.22765 0.00641
6006.72 0.22772 0.00642
6009.8 0.22781 0.00643
6012.44 0.22788 0.00644
6015.52 0.22796 0.00645
6018.16 0.22804 0.00645
6020.8 0.22811 0.00646
6023.88 0.22819 0.00647
6026.52 0.22826 0.00647
6029.16 0.22833 0.00648
6032.24 0.22841 0.00649
6034.88 0.22848 0.0065
6037.52 0.22855 0.0065
6040.6 0.22863 0.00651
6043.24 0.2287 0.00652
6045.88 0.22877 0.00652
6048.96 0.22885 0.00653
6051.6 0.22891 0.00654
6054.68 0.22899 0.00655
6057.32 0.22906 0.00655
6059.96 0.22912 0.00656
6063.04 0.2292 0.00657
6065.68 0.22926 0.00657
6068.32 0.22933 0.00658
6071.4 0.2294 0.00659
6074.04 0.22947 0.00659
6076.68 0.22953 0.0066
6079.76 0.2296 0.00661
6082.4 0.22967 0.00661
6085.04 0.22973 0.00662
6088.12 0.2298 0.00663
6090.76 0.22986 0.00663
6093.4 0.22992 0.00664
6096.48 0.22999 0.00665
6099.12 0.23005 0.00665
6102.2 0.23012 0.00666
6104.84 0.23018 0.00666
6107.48 0.23024 0.00667
6110.56 0.23031 0.00668
6113.2 0.23037 0.00668
6115.84 0.23043 0.00669
6118.92 0.23049 0.0067
6121.56 0.23055 0.0067
6124.2 0.23061 0.00671
6127.28 0.23067 0.00671
6129.92 0.23073 0.00672
6132.56 0.23079 0.00672
6135.64 0.23085 0.00673
6138.28 0.2309 0.00674
6141.36 0.23097 0.00674
6144.0 0.23102 0.00675
6146.64 0.23107 0.00675
6149.72 0.23114 0.00676
6152.36 0.23119 0.00677
6155.0 0.23124 0.00677
6158.08 0.2313 0.00678
6160.72 0.23135 0.00678
6163.36 0.23141 0.00679
6166.44 0.23146 0.00679
6169.08 0.23151 0.0068
6171.72 0.23156 0.0068
6174.8 0.23162 0.00681
6177.44 0.23167 0.00681
6180.08 0.23172 0.00682
6183.16 0.23178 0.00682
6185.8 0.23183 0.00683
6188.88 0.23188 0.00684
6191.52 0.23193 0.00684
6194.16 0.23197 0.00684
6197.24 0.23203 0.00685
6199.88 0.23207 0.00685
6202.52 0.23212 0.00686
6205.6 0.23217 0.00687
6208.24 0.23222 0.00687
6210.88 0.23226 0.00687
6213.96 0.23231 0.00688
6216.6 0.23236 0.00688
6219.24 0.2324 0.00689
6222.32 0.23245 0.00689
6224.96 0.23249 0.0069
6228.04 0.23254 0.0069
6230.68 0.23258 0.00691
6233.32 0.23263 0.00691
6236.4 0.23267 0.00692
6239.04 0.23271 0.00692
6241.68 0.23275 0.00692
6244.76 0.2328 0.00693
6247.4 0.23284 0.00693
6250.04 0.23288 0.00694
6253.12 0.23293 0.00694
6255.76 0.23296 0.00695
6258.4 0.233 0.00695
6261.48 0.23304 0.00695
6264.12 0.23308 0.00696
6266.76 0.23312 0.00696
6269.84 0.23316 0.00697
6272.48 0.2332 0.00697
6275.56 0.23324 0.00697
6278.2 0.23327 0.00698
6280.84 0.2333 0.00698
6283.92 0.23334 0.00698
6286.56 0.23337 0.00699
6289.2 0.2334 0.00699
6292.28 0.23344 0.00699
6294.92 0.23347 0.007
6297.56 0.2335 0.007
6300.64 0.23353 0.007
6303.28 0.23357 0.007
6305.92 0.2336 0.00701
6309.0 0.23363 0.00701
6311.64 0.23366 0.00701
6314.72 0.2337 0.00702
6317.36 0.23373 0.00702
6320.0 0.23376 0.00702
6323.08 0.23379 0.00703
6325.72 0.23383 0.00703
6328.36 0.23386 0.00703
6331.44 0.23389 0.00704
6334.08 0.23392 0.00704
6336.72 0.23395 0.00704
6339.8 0.23399 0.00705
6342.44 0.23402 0.00705
6345.08 0.23405 0.00705
6348.16 0.23408 0.00705
6350.8 0.2341 0.00706
6353.44 0.23413 0.00706
6356.52 0.23415 0.00706
6359.16 0.23418 0.00706
6362.24 0.23421 0.00707
6364.88 0.23423 0.00707
6367.52 0.23425 0.00707
6370.6 0.23428 0.00707
6373.24 0.2343 0.00708
6375.88 0.23432 0.00708
6378.96 0.23435 0.00708
6381.6 0.23437 0.00708
6384.24 0.23439 0.00708
6387.32 0.23441 0.00709
6389.96 0.23443 0.00709
6392.6 0.23445 0.00709
6395.68 0.23448 0.00709
6398.32 0.2345 0.00709
6401.4 0.23452 0.00709
6404.04 0.23454 0.0071
6406.68 0.23455 0.0071
6409.76 0.23457 0.0071
6412.4 0.23459 0.0071
6415.04 0.23461 0.0071
6418.12 0.23463 0.0071
6420.76 0.23464 0.0071
6423.4 0.23466 0.0071
6426.48 0.23468 0.00711
6429.12 0.23469 0.00711
6431.76 0.2347 0.00711
6434.84 0.23472 0.00711
6437.48 0.23473 0.00711
6440.12 0.23475 0.00711
6443.2 0.23476 0.00711
6445.84 0.23478 0.00711
6448.92 0.23479 0.00711
6451.56 0.2348 0.00711
6454.2 0.23481 0.00711
6457.28 0.23483 0.00711
6459.92 0.23484 0.00711
6462.56 0.23485 0.00712
6465.64 0.23486 0.00712
6468.28 0.23487 0.00712
6470.92 0.23488 0.00712
6474.0 0.23489 0.00712
6476.64 0.2349 0.00712
6479.28 0.2349 0.00712
6482.36 0.23491 0.00712
6485.0 0.23492 0.00712
6488.08 0.23493 0.00712
6490.72 0.23494 0.00712
6493.36 0.23494 0.00712
6496.44 0.23495 0.00712
6499.08 0.23496 0.00712
6501.72 0.23496 0.00712
6504.8 0.23497 0.00711
6507.44 0.23497 0.00711
6510.08 0.23497 0.00711
6513.16 0.23498 0.00711
6515.8 0.23498 0.00711
6518.44 0.23499 0.00711
6521.52 0.23499 0.00711
6524.16 0.23499 0.00711
6527.24 0.23499 0.00711
6529.88 0.23499 0.00711
6532.52 0.235 0.00711
6535.6 0.235 0.00711
6538.24 0.235 0.00711
6540.88 0.23499 0.0071
6543.96 0.23499 0.0071
6546.6 0.23498 0.0071
6549.24 0.23498 0.0071
6552.32 0.23497 0.0071
6554.96 0.23497 0.00709
6557.6 0.23496 0.00709
6560.68 0.23496 0.00709
6563.32 0.23496 0.00709
6565.96 0.23495 0.00709
6569.04 0.23495 0.00708
6571.68 0.23494 0.00708
6574.76 0.23494 0.00708
6577.4 0.23493 0.00708
6580.04 0.23493 0.00708
6583.12 0.23492 0.00707
6585.76 0.23492 0.00707
6588.4 0.23491 0.00707
6591.48 0.23491 0.00707
6594.12 0.2349 0.00707
6596.76 0.2349 0.00707
6599.84 0.23489 0.00706
6602.48 0.23489 0.00706
6605.12 0.23489 0.00706
6608.2 0.23488 0.00706
6610.84 0.23488 0.00706
6613.92 0.23487 0.00705
6616.56 0.23486 0.00705
6619.2 0.23485 0.00705
6622.28 0.23483 0.00704
6624.92 0.23482 0.00704
6627.56 0.23481 0.00704
6630.64 0.2348 0.00704
6633.28 0.23479 0.00703
6635.92 0.23478 0.00703
6639.0 0.23476 0.00703
6641.64 0.23475 0.00702
6644.28 0.23473 0.00702
6647.36 0.23472 0.00702
6650.0 0.2347 0.00701
6652.64 0.23469 0.00701
6655.72 0.23467 0.007
6658.36 0.23466 0.007
6661.44 0.23464 0.007
6664.08 0.23463 0.00699
6666.72 0.23461 0.00699
6669.8 0.23459 0.00698
6672.44 0.23457 0.00698
6675.08 0.23456 0.00698
6678.16 0.23454 0.00697
6680.8 0.23452 0.00697
6683.44 0.2345 0.00696
6686.52 0.23448 0.00696
6689.16 0.23446 0.00696
6691.8 0.23444 0.00695
6694.88 0.23442 0.00695
6697.52 0.2344 0.00694
6700.6 0.23437 0.00694
6703.24 0.23435 0.00693
6705.88 0.23433 0.00693
6708.96 0.23431 0.00692
6711.6 0.23429 0.00692
6714.24 0.23426 0.00691
6717.32 0.23424 0.00691
6719.96 0.23422 0.0069
6722.6 0.23419 0.0069
6725.68 0.23417 0.00689
6728.32 0.23414 0.00689
6730.96 0.23412 0.00688
6734.04 0.23409 0.00687
6736.68 0.23407 0.00687
6739.32 0.23404 0.00686
6742.4 0.23401 0.00686
6745.04 0.23398 0.00685
6748.12 0.23395 0.00685
6750.76 0.23393 0.00684
6753.4 0.2339 0.00683
6756.48 0.23387 0.00683
6759.12 0.23384 0.00682
6761.76 0.23381 0.00682
6764.84 0.23378 0.00681
6767.48 0.23375 0.0068
6770.12 0.23372 0.0068
6773.2 0.23369 0.00679
6775.84 0.23366 0.00678
6778.48 0.23363 0.00678
6781.56 0.23359 0.00677
6784.2 0.23356 0.00676
6787.28 0.23353 0.00676
6789.92 0.2335 0.00675
6792.56 0.23346 0.00674
6795.64 0.23343 0.00673
6798.28 0.2334 0.00673
6800.92 0.23336 0.00672
