# %ECSV 1.0
# ---
# datatype:
# - {name: WAV, unit: Angstrom, datatype: float32}
# - {name: EFF, unit: electron / ph, datatype: float64}
# - {name: EFF_UNC, datatype: float64}
# meta: !!omap
# - {CWAV: '8000'}
# - {FILTER: OG550}
# - {GRATING: 1200B}
# - {GRISM: none}
# - {MODE: spectroscopic}
# schema: astropy-2.0
WAV EFF EFF_UNC
6645.35 0.13736 0.0
6647.99 0.13736 0.0
6650.63 0.13735 0.0
6653.6 0.13734 0.0
6656.24 0.13733 0.0
6658.88 0.13733 0.0
6661.52 0.13732 0.0
6664.16 0.13731 0.0
6667.13 0.1373 0.0
6669.77 0.1373 0.0
6672.41 0.13729 0.0
6675.05 0.13728 0.0
6677.69 0.13727 0.0
6680.33 0.13726 0.0
6683.3 0.13725 0.0
6685.94 0.13724 0.0
6688.58 0.13723 0.0
6691.22 0.13723 0.0
6693.86 0.13722 0.0
6696.83 0.13721 0.0
6699.47 0.1372 0.0
6702.11 0.13719 0.0
6704.75 0.13718 0.0
6707.39 0.13717 0.0
6710.36 0.13715 0.0
6713.0 0.13714 0.0
6715.64 0.13713 0.0
6718.28 0.13712 0.0
6720.92 0.13711 0.0
6723.56 0.1371 0.0
6726.53 0.13709 0.0
6729.17 0.13708 0.0
6731.81 0.13707 0.0
6734.45 0.13705 0.0
6737.09 0.13704 0.0
6740.06 0.13703 0.0
6742.7 0.13702 0.0
6745.34 0.13701 0.0
6747.98 0.13699 0.0
6750.62 0.13698 0.0
6753.59 0.13697 0.0
6756.23 0.13695 0.0
6758.87 0.13694 0.0
6761.51 0.13693 0.0
6764.15 0.13692 0.0
6766.79 0.1369 0.0
6769.76 0.13689 0.0
6772.4 0.13687 0.0
6775.04 0.13686 0.0
6777.68 0.13685 0.0
6780.32 0.13683 0.0
6783.29 0.13682 0.0
6785.93 0.1368 0.0
6788.57 0.13679 0.0
6791.21 0.13677 0.0
6793.85 0.13676 0.0
6796.82 0.13674 0.0
6799.46 0.13673 0.0
6802.1 0.13671 0.0
6804.74 0.1367 0.0
6807.38 0.13668 0.0
6810.02 0.13667 0.0
6812.99 0.13665 0.0
6815.63 0.13663 0.0
6818.27 0.13662 0.0
6820.91 0.1366 0.0
6823.55 0.13658 0.0
6826.52 0.13657 0.0
6829.16 0.13655 0.0
6831.8 0.13653 0.0
6834.44 0.13652 0.0
6837.08 0.1365 0.0
6840.05 0.13648 0.0
6842.69 0.13646 0.0
6845.33 0.13645 0.0
6847.97 0.13643 0.0
6850.61 0.13641 0.0
6853.25 0.13639 0.0
6856.22 0.13637 0.0
6858.86 0.13636 0.0
6861.5 0.13634 0.0
6864.14 0.13632 0.0
6866.78 0.1363 0.0
6869.75 0.13628 0.0
6872.39 0.13626 0.0
6875.03 0.13624 0.0
6877.67 0.13622 0.0
6880.31 0.1362 0.0
6883.28 0.13618 0.0
6885.92 0.13616 0.0
6888.56 0.13614 0.0
6891.2 0.13612 0.0
6893.84 0.13611 0.0
6896.48 0.13609 0.0
6899.45 0.13606 0.0
6902.09 0.13604 0.0
6904.73 0.13602 0.0
6907.37 0.136 0.0
6910.01 0.13598 0.0
6912.98 0.13596 0.0
6915.62 0.13594 0.0
6918.26 0.13592 0.0
6920.9 0.1359 0.0
6923.54 0.13587 0.0
6926.51 0.13585 0.0
6929.15 0.13583 0.0
6931.79 0.13581 0.0
6934.43 0.13579 0.0
6937.07 0.13576 0.0
6939.71 0.13574 0.0
6942.68 0.13572 0.0
6945.32 0.1357 0.0
6947.96 0.13567 0.0
6950.6 0.13565 0.0
6953.24 0.13563 0.0
6956.21 0.1356 0.0
6958.85 0.13558 0.0
6961.49 0.13556 0.0
6964.13 0.13553 0.0
6966.77 0.13551 0.0
6969.74 0.13548 0.0
6972.38 0.13546 0.0
6975.02 0.13544 0.0
6977.66 0.13541 0.0
6980.3 0.13539 0.0
6982.94 0.13537 0.0
6985.91 0.13534 0.0
6988.55 0.13532 0.0
6991.19 0.13529 0.0
6993.83 0.13527 0.0
6996.47 0.13524 0.0
6999.44 0.13521 0.0
7002.08 0.13519 0.0
7004.72 0.13516 0.0
7007.36 0.13514 0.0
7010.0 0.13511 0.0
7012.97 0.13509 0.0
7015.61 0.13506 0.0
7018.25 0.13503 0.0
7020.89 0.13501 0.0
7023.53 0.13498 0.0
7026.5 0.13495 0.0
7029.14 0.13493 0.0
7031.78 0.1349 0.0
7034.42 0.13488 0.0
7037.06 0.13485 0.0
7039.7 0.13482 0.0
7042.67 0.13479 0.0
7045.31 0.13477 0.0
7047.95 0.13474 0.0
7050.59 0.13471 0.0
7053.23 0.13468 0.0
7056.2 0.13465 0.0
7058.84 0.13463 0.0
7061.48 0.1346 0.0
7064.12 0.13457 0.0
7066.76 0.13454 0.0
7069.73 0.13451 0.0
7072.37 0.13448 0.0
7075.01 0.13446 0.0
7077.65 0.13443 0.0
7080.29 0.1344 0.0
7082.93 0.13437 0.0
7085.9 0.13434 0.0
7088.54 0.13431 0.0
7091.18 0.13428 0.0
7093.82 0.13425 0.0
7096.46 0.13422 0.0
7099.43 0.13419 0.0
7102.07 0.13416 0.0
7104.71 0.13413 0.0
7107.35 0.1341 0.0
7109.99 0.13407 0.0
7112.96 0.13404 0.0
7115.6 0.13401 0.0
7118.24 0.13398 0.0
7120.88 0.13395 0.0
7123.52 0.13392 0.0
7126.16 0.13389 0.0
7129.13 0.13386 0.0
7131.77 0.13383 0.0
7134.41 0.13379 0.0
7137.05 0.13376 0.0
7139.69 0.13373 0.0
7142.66 0.1337 0.0
7145.3 0.13367 0.0
7147.94 0.13364 0.0
7150.58 0.1336 0.0
7153.22 0.13357 0.0
7156.19 0.13354 0.0
7158.83 0.13351 0.0
7161.47 0.13347 0.0
7164.11 0.13344 0.0
7166.75 0.13341 0.0
7169.39 0.13338 0.0
7172.36 0.13334 0.0
7175.0 0.13331 0.0
7177.64 0.13328 0.0
7180.28 0.13325 0.0
7182.92 0.13321 0.0
7185.89 0.13318 0.0
7188.53 0.13314 0.0
7191.17 0.13311 0.0
7193.81 0.13308 0.0
7196.45 0.13304 0.0
7199.42 0.13301 0.0
7202.06 0.13297 0.0
7204.7 0.13294 0.0
7207.34 0.13291 0.0
7209.98 0.13287 0.0
7212.62 0.13284 0.0
7215.59 0.1328 0.0
7218.23 0.13277 0.0
7220.87 0.13273 0.0
7223.51 0.1327 0.0
7226.15 0.13266 0.0
7229.12 0.13262 0.0
7231.76 0.13259 0.0
7234.4 0.13256 0.0
7237.04 0.13252 0.0
7239.68 0.13249 0.0
7242.65 0.13245 0.0
7245.29 0.13241 0.0
7247.93 0.13238 0.0
7250.57 0.13234 0.0
7253.21 0.13231 0.0
7255.85 0.13227 0.0
7258.82 0.13223 0.0
7261.46 0.13219 0.0
7264.1 0.13216 0.0
7266.74 0.13212 0.0
7269.38 0.13209 0.0
7272.35 0.13205 0.0
7274.99 0.13201 0.0
7277.63 0.13197 0.0
7280.27 0.13194 0.0
7282.91 0.1319 0.0
7285.88 0.13186 0.0
7288.52 0.13182 0.0
7291.16 0.13179 0.0
7293.8 0.13175 0.0
7296.44 0.13171 0.0
7299.08 0.13167 0.0
7302.05 0.13163 0.0
7304.69 0.1316 0.0
7307.33 0.13156 0.0
7309.97 0.13152 0.0
7312.61 0.13148 0.0
7315.58 0.13144 0.0
7318.22 0.1314 0.0
7320.86 0.13136 0.0
7323.5 0.13133 0.0
7326.14 0.13129 0.0
7329.11 0.13125 0.0
7331.75 0.13121 0.0
7334.39 0.13117 0.0
7337.03 0.13113 0.0
7339.67 0.13109 0.0
7342.64 0.13105 0.0
7345.28 0.13101 0.0
7347.92 0.13097 0.0
7350.56 0.13093 0.0
7353.2 0.13089 0.0
7355.84 0.13085 0.0
7358.81 0.13081 0.0
7361.45 0.13077 0.0
7364.09 0.13073 0.0
7366.73 0.13069 0.0
7369.37 0.13065 0.0
7372.34 0.13061 0.0
7374.98 0.13057 0.0
7377.62 0.13053 0.0
7380.26 0.13049 0.0
7382.9 0.13045 0.0
7385.87 0.1304 0.0
7388.51 0.13036 0.0
7391.15 0.13032 0.0
7393.79 0.13028 0.0
7396.43 0.13024 0.0
7399.07 0.1302 0.0
7402.04 0.13015 0.0
7404.68 0.13011 0.0
7407.32 0.13007 0.0
7409.96 0.13003 0.0
7412.6 0.12999 0.0
7415.57 0.12994 0.0
7418.21 0.1299 0.0
7420.85 0.12986 0.0
7423.49 0.12982 0.0
7426.13 0.12978 0.0
7429.1 0.12973 0.0
7431.74 0.12969 0.0
7434.38 0.12965 0.0
7437.02 0.1296 0.0
7439.66 0.12956 0.0
7442.3 0.12952 0.0
7445.27 0.12947 0.0
7447.91 0.12943 0.0
7450.55 0.12939 0.0
7453.19 0.12934 0.0
7455.83 0.1293 0.0
7458.8 0.12925 0.0
7461.44 0.12921 0.0
7464.08 0.12917 0.0
7466.72 0.12913 0.0
7469.36 0.12908 0.0
7472.33 0.12903 0.0
7474.97 0.12899 0.0
7477.61 0.12895 0.0
7480.25 0.1289 0.0
7482.89 0.12886 0.0
7485.53 0.12882 0.0
7488.5 0.12877 0.0
7491.14 0.12872 0.0
7493.78 0.12868 0.0
7496.42 0.12864 0.0
7499.06 0.12859 0.0
7502.03 0.12854 0.0
7504.67 0.1285 0.0
7507.31 0.12845 0.0
7509.95 0.12841 0.0
7512.59 0.12837 0.0
7515.56 0.12832 0.0
7518.2 0.12827 0.0
7520.84 0.12823 0.0
7523.48 0.12818 0.0
7526.12 0.12814 0.0
7528.76 0.12809 0.0
7531.73 0.12804 0.0
7534.37 0.128 0.0
7537.01 0.12795 0.0
7539.65 0.12791 0.0
7542.29 0.12786 0.0
7545.26 0.12781 0.0
7547.9 0.12776 0.0
7550.54 0.12772 0.0
7553.18 0.12767 0.0
7555.82 0.12763 0.0
7558.79 0.12758 0.0
7561.43 0.12753 0.0
7564.07 0.12748 0.0
7566.71 0.12744 0.0
7569.35 0.12739 0.0
7571.99 0.12735 0.0
7574.96 0.12729 0.0
7577.6 0.12725 0.0
7580.24 0.1272 0.0
7582.88 0.12715 0.0
7585.52 0.12711 0.0
7588.49 0.12706 0.0
7591.13 0.12701 0.0
7593.77 0.12696 0.0
7596.41 0.12692 0.0
7599.05 0.12687 0.0
7602.02 0.12682 0.0
7604.66 0.12677 0.0
7607.3 0.12672 0.0
7609.94 0.12667 0.0
7612.58 0.12663 0.0
7615.22 0.12658 0.0
7618.19 0.12653 0.0
7620.83 0.12648 0.0
7623.47 0.12643 0.0
7626.11 0.12638 0.0
7628.75 0.12634 0.0
7631.72 0.12628 0.0
7634.36 0.12623 0.0
7637.0 0.12619 0.0
7639.64 0.12614 0.0
7642.28 0.12609 0.0
7645.25 0.12603 0.0
7647.89 0.12599 0.0
7650.53 0.12594 0.0
7653.17 0.12589 0.0
7655.81 0.12584 0.0
7658.78 0.12579 0.0
7661.42 0.12574 0.0
7664.06 0.12569 0.0
7666.7 0.12564 0.0
7669.34 0.12559 0.0
7671.98 0.12554 0.0
7674.95 0.12549 0.0
7677.59 0.12544 0.0
7680.23 0.12539 0.0
7682.87 0.12534 0.0
7685.51 0.12529 0.0
7688.48 0.12524 0.0
7691.12 0.12519 0.0
7693.76 0.12514 0.0
7696.4 0.12509 0.0
7699.04 0.12504 0.0
7702.01 0.12498 0.0
7704.65 0.12493 0.0
7707.29 0.12488 0.0
7709.93 0.12483 0.0
7712.57 0.12478 0.0
7715.21 0.12473 0.0
7718.18 0.12468 0.0
7720.82 0.12463 0.0
7723.46 0.12457 0.0
7726.1 0.12452 0.0
7728.74 0.12447 0.0
7731.71 0.12442 0.0
7734.35 0.12437 0.0
7736.99 0.12432 0.0
7739.63 0.12427 0.0
7742.27 0.12421 0.0
7745.24 0.12416 0.0
7747.88 0.12411 0.0
7750.52 0.12406 0.0
7753.16 0.12401 0.0
7755.8 0.12395 0.0
7758.44 0.1239 0.0
7761.41 0.12385 0.0
7764.05 0.12379 0.0
7766.69 0.12374 0.0
7769.33 0.12369 0.0
7771.97 0.12364 0.0
7774.94 0.12358 0.0
7777.58 0.12353 0.0
7780.22 0.12348 0.0
7782.86 0.12343 0.0
7785.5 0.12338 0.0
7788.47 0.12332 0.0
7791.11 0.12327 0.0
7793.75 0.12321 0.0
7796.39 0.12316 0.0
7799.03 0.12311 0.0
7801.67 0.12306 0.0
7804.64 0.123 0.0
7807.28 0.12295 0.0
7809.92 0.12289 0.0
7812.56 0.12284 0.0
7815.2 0.12279 0.0
7818.17 0.12273 0.0
7820.81 0.12268 0.0
7823.45 0.12263 0.0
7826.09 0.12257 0.0
7828.73 0.12252 0.0
7831.7 0.12246 0.0
7834.34 0.12241 0.0
7836.98 0.12236 0.0
7839.62 0.1223 0.0
7842.26 0.12225 0.0
7844.9 0.1222 0.0
7847.87 0.12214 0.0
7850.51 0.12208 0.0
7853.15 0.12203 0.0
7855.79 0.12198 0.0
7858.43 0.12192 0.0
7861.4 0.12186 0.0
7864.04 0.12181 0.0
7866.68 0.12176 0.0
7869.32 0.1217 0.0
7871.96 0.12165 0.0
7874.93 0.12159 0.0
7877.57 0.12154 0.0
7880.21 0.12148 0.0
7882.85 0.12143 0.0
7885.49 0.12137 0.0
7888.13 0.12132 0.0
7891.1 0.12126 0.0
7893.74 0.12121 0.0
7896.38 0.12115 0.0
7899.02 0.1211 0.0
7901.66 0.12104 0.0
7904.63 0.12098 0.0
7907.27 0.12093 0.0
7909.91 0.12087 0.0
7912.55 0.12082 0.0
7915.19 0.12076 0.0
7918.16 0.1207 0.0
7920.8 0.12065 0.0
7923.44 0.12059 0.0
7926.08 0.12054 0.0
7928.72 0.12048 0.0
7931.36 0.12043 0.0
7934.33 0.12037 0.0
7936.97 0.12031 0.0
7939.61 0.12026 0.0
7942.25 0.1202 0.0
7944.89 0.12015 0.0
7947.86 0.12009 0.0
7950.5 0.12003 0.0
7953.14 0.11998 0.0
7955.78 0.11992 0.0
7958.42 0.11987 0.0
7961.39 0.1198 0.0
7964.03 0.11975 0.0
7966.67 0.11969 0.0
7969.31 0.11964 0.0
7971.95 0.11958 0.0
7974.59 0.11953 0.0
7977.56 0.11946 0.0
7980.2 0.11941 0.0
7982.84 0.11935 0.0
7985.48 0.1193 0.0
7988.12 0.11924 0.0
7991.09 0.11918 0.0
7993.73 0.11912 0.0
8003.96 0.11891 0.0
8006.6 0.11885 0.0
8009.24 0.11879 0.0
8012.21 0.11873 0.0
8014.85 0.11867 0.0
8017.49 0.11862 0.0
8020.13 0.11856 0.0
8022.77 0.11851 0.0
8025.74 0.11844 0.0
8028.38 0.11839 0.0
8031.02 0.11833 0.0
8033.66 0.11827 0.0
8036.3 0.11822 0.0
8038.94 0.11816 0.0
8041.91 0.1181 0.0
8044.55 0.11804 0.0
8047.19 0.11798 0.0
8049.83 0.11793 0.0
8052.47 0.11787 0.0
8055.44 0.11781 0.0
8058.08 0.11775 0.0
8060.72 0.11769 0.0
8063.36 0.11763 0.0
8066.0 0.11758 0.0
8068.97 0.11751 0.0
8071.61 0.11746 0.0
8074.25 0.1174 0.0
8076.89 0.11734 0.0
8079.53 0.11728 0.0
8082.17 0.11723 0.0
8085.14 0.11716 0.0
8087.78 0.11711 0.0
8090.42 0.11705 0.0
8093.06 0.11699 0.0
8095.7 0.11693 0.0
8098.67 0.11687 0.0
8101.31 0.11681 0.0
8103.95 0.11675 0.0
8106.59 0.1167 0.0
8109.23 0.11664 0.0
8112.2 0.11657 0.0
8114.84 0.11652 0.0
8117.48 0.11646 0.0
8120.12 0.1164 0.0
8122.76 0.11634 0.0
8125.4 0.11629 0.0
8128.37 0.11622 0.0
8131.01 0.11616 0.0
8133.65 0.1161 0.0
8136.29 0.11605 0.0
8138.93 0.11599 0.0
8141.9 0.11592 0.0
8144.54 0.11587 0.0
8147.18 0.11581 0.0
8149.82 0.11575 0.0
8152.46 0.11569 0.0
8155.43 0.11563 0.0
8158.07 0.11557 0.0
8160.71 0.11551 0.0
8163.35 0.11545 0.0
8165.99 0.11539 0.0
8168.63 0.11533 0.0
8171.6 0.11527 0.0
8174.24 0.11521 0.0
8176.88 0.11515 0.0
8179.52 0.11509 0.0
8182.16 0.11503 0.0
8185.13 0.11497 0.0
8187.77 0.11491 0.0
8190.41 0.11485 0.0
8193.05 0.11479 0.0
8195.69 0.11473 0.0
8198.66 0.11467 0.0
8201.3 0.11461 0.0
8203.94 0.11455 0.0
8206.58 0.11449 0.0
8209.22 0.11443 0.0
8211.86 0.11437 0.0
8214.83 0.11431 0.0
8217.47 0.11425 0.0
8220.11 0.11419 0.0
8222.75 0.11413 0.0
8225.39 0.11407 0.0
8228.36 0.11401 0.0
8231.0 0.11395 0.0
8233.64 0.11389 0.0
8236.28 0.11383 0.0
8238.92 0.11377 0.0
8241.89 0.1137 0.0
8244.53 0.11364 0.0
8247.17 0.11359 0.0
8249.81 0.11353 0.0
8252.45 0.11347 0.0
8255.09 0.11341 0.0
8258.06 0.11334 0.0
8260.7 0.11328 0.0
8263.34 0.11322 0.0
8265.98 0.11316 0.0
8268.62 0.1131 0.0
8271.59 0.11304 0.0
8274.23 0.11298 0.0
8276.87 0.11292 0.0
8279.51 0.11286 0.0
8282.15 0.1128 0.0
8285.12 0.11273 0.0
8287.76 0.11267 0.0
8290.4 0.11261 0.0
8293.04 0.11255 0.0
8295.68 0.11249 0.0
8298.32 0.11243 0.0
8301.29 0.11237 0.0
8303.93 0.11231 0.0
8306.57 0.11225 0.0
8309.21 0.11219 0.0
8311.85 0.11213 0.0
8314.82 0.11206 0.0
8317.46 0.112 0.0
8320.1 0.11194 0.0
8322.74 0.11188 0.0
8325.38 0.11182 0.0
8328.35 0.11176 0.0
8330.99 0.1117 0.0
8333.63 0.11164 0.0
8336.27 0.11158 0.0
8338.91 0.11152 0.0
8341.88 0.11145 0.0
8344.52 0.11139 0.0
8347.16 0.11133 0.0
8349.8 0.11127 0.0
8352.44 0.11121 0.0
8355.08 0.11115 0.0
8358.05 0.11108 0.0
8360.69 0.11102 0.0
8363.33 0.11096 0.0
8365.97 0.1109 0.0
8368.61 0.11084 0.0
8371.58 0.11077 0.0
8374.22 0.11071 0.0
8376.86 0.11065 0.0
8379.5 0.11059 0.0
8382.14 0.11053 0.0
8385.11 0.11046 0.0
8387.75 0.1104 0.0
8390.39 0.11034 0.0
8393.03 0.11028 0.0
8395.67 0.11022 0.0
8398.31 0.11016 0.0
8401.28 0.1101 0.0
8403.92 0.11004 0.0
8406.56 0.10998 0.0
8409.2 0.10991 0.0
8411.84 0.10985 0.0
8414.81 0.10979 0.0
8417.45 0.10973 0.0
8420.09 0.10967 0.0
8422.73 0.10961 0.0
8425.37 0.10955 0.0
8428.34 0.10948 0.0
8430.98 0.10942 0.0
8433.62 0.10936 0.0
8436.26 0.1093 0.0
8438.9 0.10924 0.0
8441.54 0.10918 0.0
8444.51 0.10911 0.0
8447.15 0.10905 0.0
8449.79 0.10899 0.0
8452.43 0.10893 0.0
8455.07 0.10887 0.0
8458.04 0.1088 0.0
8460.68 0.10874 0.0
8463.32 0.10868 0.0
8465.96 0.10862 0.0
8468.6 0.10856 0.0
8471.57 0.10849 0.0
8474.21 0.10843 0.0
8476.85 0.10837 0.0
8479.49 0.10831 0.0
8482.13 0.10824 0.0
8484.77 0.10818 0.0
8487.74 0.10812 0.0
8490.38 0.10806 0.0
8493.02 0.108 0.0
8495.66 0.10793 0.0
8498.3 0.10787 0.0
8501.27 0.10781 0.0
8503.91 0.10775 0.0
8506.55 0.10768 0.0
8509.19 0.10762 0.0
8511.83 0.10756 0.0
8514.8 0.10749 0.0
8517.44 0.10743 0.0
8520.08 0.10737 0.0
8522.72 0.10731 0.0
8525.36 0.10725 0.0
8528.0 0.10719 0.0
8530.97 0.10712 0.0
8533.61 0.10706 0.0
8536.25 0.107 0.0
8538.89 0.10694 0.0
8541.53 0.10688 0.0
8544.5 0.10681 0.0
8547.14 0.10675 0.0
8549.78 0.10669 0.0
8552.42 0.10663 0.0
8555.06 0.10657 0.0
8558.03 0.1065 0.0
8560.67 0.10644 0.0
8563.31 0.10638 0.0
8565.95 0.10632 0.0
8568.59 0.10626 0.0
8571.23 0.1062 0.0
8574.2 0.10613 0.0
8576.84 0.10607 0.0
8579.48 0.10601 0.0
8582.12 0.10595 0.0
8584.76 0.10589 0.0
8587.73 0.10582 0.0
8590.37 0.10576 0.0
8593.01 0.1057 0.0
8595.65 0.10564 0.0
8598.29 0.10558 0.0
8601.26 0.10551 0.0
8603.9 0.10545 0.0
8606.54 0.10539 0.0
8609.18 0.10533 0.0
8611.82 0.10527 0.0
8614.46 0.10521 0.0
8617.43 0.10514 0.0
8620.07 0.10508 0.0
8622.71 0.10502 0.0
8625.35 0.10496 0.0
8627.99 0.10489 0.0
8630.96 0.10483 0.0
8633.6 0.10477 0.0
8636.24 0.10471 0.0
8638.88 0.10464 0.0
8641.52 0.10458 0.0
8644.49 0.10452 0.0
8647.13 0.10446 0.0
8649.77 0.10439 0.0
8652.41 0.10433 0.0
8655.05 0.10427 0.0
8657.69 0.10421 0.0
8660.66 0.10414 0.0
8663.3 0.10408 0.0
8665.94 0.10402 0.0
8668.58 0.10396 0.0
8671.22 0.1039 0.0
8674.19 0.10383 0.0
8676.83 0.10377 0.0
8679.47 0.10371 0.0
8682.11 0.10365 0.0
8684.75 0.10359 0.0
8687.72 0.10352 0.0
8690.36 0.10346 0.0
8693.0 0.1034 0.0
8695.64 0.10334 0.0
8698.28 0.10328 0.0
8701.25 0.10322 0.0
8703.89 0.10315 0.0
8706.53 0.10309 0.0
8709.17 0.10303 0.0
8711.81 0.10297 0.0
8714.45 0.10291 0.0
8717.42 0.10285 0.0
8720.06 0.10279 0.0
8722.7 0.10272 0.0
8725.34 0.10266 0.0
8727.98 0.1026 0.0
8730.95 0.10254 0.0
8733.59 0.10248 0.0
8736.23 0.10242 0.0
8738.87 0.10236 0.0
8741.51 0.1023 0.0
8744.48 0.10223 0.0
8747.12 0.10217 0.0
8749.76 0.10211 0.0
8752.4 0.10205 0.0
8755.04 0.10199 0.0
8757.68 0.10193 0.0
8760.65 0.10186 0.0
8763.29 0.1018 0.0
8765.93 0.10174 0.0
8768.57 0.10168 0.0
8771.21 0.10162 0.0
8774.18 0.10155 0.0
8776.82 0.10149 0.0
8779.46 0.10143 0.0
8782.1 0.10137 0.0
8784.74 0.10131 0.0
8787.71 0.10124 0.0
8790.35 0.10118 0.0
8792.99 0.10112 0.0
8795.63 0.10106 0.0
8798.27 0.101 0.0
8800.91 0.10094 0.0
8803.88 0.10088 0.0
8806.52 0.10082 0.0
8809.16 0.10076 0.0
8811.8 0.1007 0.0
8814.44 0.10064 0.0
8817.41 0.10057 0.0
8820.05 0.10051 0.0
8822.69 0.10045 0.0
8825.33 0.10039 0.0
8827.97 0.10033 0.0
8830.94 0.10026 0.0
8833.58 0.1002 0.0
8836.22 0.10015 0.0
8838.86 0.10009 0.0
8841.5 0.10003 0.0
8844.14 0.09997 0.0
8847.11 0.0999 0.0
8849.75 0.09984 0.0
8852.39 0.09978 0.0
8855.03 0.09972 0.0
8857.67 0.09966 0.0
8860.64 0.09959 0.0
8863.28 0.09954 0.0
8865.92 0.09948 0.0
8868.56 0.09942 0.0
8871.2 0.09936 0.0
8874.17 0.09929 0.0
8876.81 0.09923 0.0
8879.45 0.09917 0.0
8882.09 0.09911 0.0
8884.73 0.09905 0.0
8887.37 0.09899 0.0
8890.34 0.09893 0.0
8892.98 0.09887 0.0
8895.62 0.09881 0.0
8898.26 0.09875 0.0
8900.9 0.09869 0.0
8903.87 0.09863 0.0
8906.51 0.09857 0.0
8909.15 0.09851 0.0
8911.79 0.09845 0.0
8914.43 0.09839 0.0
8917.4 0.09832 0.0
8920.04 0.09826 0.0
8922.68 0.09821 0.0
8925.32 0.09815 0.0
8927.96 0.09809 0.0
8930.6 0.09803 0.0
8933.57 0.09796 0.0
8936.21 0.0979 0.0
8938.85 0.09785 0.0
8941.49 0.09779 0.0
8944.13 0.09773 0.0
8947.1 0.09766 0.0
8949.74 0.0976 0.0
8952.38 0.09755 0.0
8955.02 0.09749 0.0
8957.66 0.09743 0.0
8960.63 0.09736 0.0
8963.27 0.0973 0.0
8965.91 0.09725 0.0
8968.55 0.09719 0.0
8971.19 0.09713 0.0
8973.83 0.09707 0.0
8976.8 0.09701 0.0
8979.44 0.09695 0.0
8982.08 0.09689 0.0
8984.72 0.09683 0.0
8987.36 0.09677 0.0
8990.33 0.09671 0.0
8992.97 0.09665 0.0
8995.61 0.09659 0.0
8998.25 0.09653 0.0
9000.89 0.09648 0.0
9003.86 0.09641 0.0
9006.5 0.09635 0.0
9009.14 0.0963 0.0
9011.78 0.09624 0.0
9014.42 0.09618 0.0
9017.39 0.09612 0.0
9020.03 0.09606 0.0
9022.67 0.096 0.0
9025.31 0.09594 0.0
9027.95 0.09588 0.0
9030.59 0.09583 0.0
9033.56 0.09576 0.0
9036.2 0.09571 0.0
9038.84 0.09565 0.0
9041.48 0.09559 0.0
9044.12 0.09553 0.0
9047.09 0.09547 0.0
9049.73 0.09541 0.0
9052.37 0.09535 0.0
9055.01 0.0953 0.0
9057.65 0.09524 0.0
9060.62 0.09518 0.0
9063.26 0.09512 0.0
9065.9 0.09506 0.0
9068.54 0.095 0.0
9071.18 0.09495 0.0
9073.82 0.09489 0.0
9076.79 0.09483 0.0
9079.43 0.09477 0.0
9082.07 0.09471 0.0
9084.71 0.09466 0.0
9087.35 0.0946 0.0
9090.32 0.09454 0.0
9092.96 0.09448 0.0
9095.6 0.09442 0.0
9098.24 0.09437 0.0
9100.88 0.09431 0.0
9103.85 0.09425 0.0
9106.49 0.09419 0.0
9109.13 0.09413 0.0
9111.77 0.09408 0.0
9114.41 0.09402 0.0
9117.05 0.09396 0.0
9120.02 0.0939 0.0
9122.66 0.09384 0.0
9125.3 0.09379 0.0
9127.94 0.09373 0.0
9130.58 0.09368 0.0
9133.55 0.09361 0.0
9136.19 0.09356 0.0
9138.83 0.0935 0.0
9141.47 0.09345 0.0
9144.11 0.09339 0.0
9147.08 0.09333 0.0
9149.72 0.09327 0.0
9152.36 0.09322 0.0
9155.0 0.09316 0.0
9157.64 0.0931 0.0
9160.28 0.09305 0.0
9163.25 0.09299 0.0
9165.89 0.09293 0.0
9168.53 0.09288 0.0
9171.17 0.09282 0.0
9173.81 0.09277 0.0
9176.78 0.0927 0.0
9179.42 0.09265 0.0
9182.06 0.09259 0.0
9184.7 0.09254 0.0
9187.34 0.09248 0.0
9190.31 0.09242 0.0
9192.95 0.09237 0.0
9195.59 0.09231 0.0
9198.23 0.09226 0.0
9200.87 0.0922 0.0
9203.51 0.09215 0.0
9206.48 0.09209 0.0
9209.12 0.09203 0.0
9211.76 0.09198 0.0
9214.4 0.09192 0.0
9217.04 0.09187 0.0
9220.01 0.09181 0.0
9222.65 0.09175 0.0
9225.29 0.0917 0.0
9227.93 0.09164 0.0
9230.57 0.09159 0.0
9233.54 0.09153 0.0
9236.18 0.09147 0.0
9238.82 0.09142 0.0
9241.46 0.09137 0.0
9244.1 0.09131 0.0
9246.74 0.09126 0.0
9249.71 0.0912 0.0
9252.35 0.09114 0.0
9254.99 0.09109 0.0
9257.63 0.09104 0.0
9260.27 0.09098 0.0
9263.24 0.09092 0.0
9265.88 0.09087 0.0
9268.52 0.09081 0.0
9271.16 0.09076 0.0
9273.8 0.09071 0.0
9276.77 0.09065 0.0
9279.41 0.09059 0.0
9282.05 0.09054 0.0
9284.69 0.09049 0.0
9287.33 0.09043 0.0
9289.97 0.09038 0.0
9292.94 0.09032 0.0
9295.58 0.09027 0.0
9298.22 0.09022 0.0
9300.86 0.09016 0.0
9303.5 0.09011 0.0
9306.47 0.09005 0.0
9309.11 0.09 0.0
9311.75 0.08995 0.0
9314.39 0.08989 0.0
9317.03 0.08984 0.0
9320.0 0.08978 0.0
9322.64 0.08973 0.0
9325.28 0.08968 0.0
9327.92 0.08963 0.0
9330.56 0.08957 0.0
9333.2 0.08952 0.0
9336.17 0.08946 0.0
9338.81 0.08941 0.0
9341.45 0.08936 0.0
9344.09 0.08931 0.0
9346.73 0.08926 0.0
9349.7 0.0892 0.0
