# %ECSV 1.0
# ---
# datatype:
# - {name: WAV, unit: Angstrom, datatype: float32}
# - {name: EFF, unit: electron / ph, datatype: float64}
# - {name: EFF_UNC, datatype: float64}
# meta: !!omap
# - {CWAV: '8000'}
# - {FILTER: OG550}
# - {GRATING: 900ZD}
# - {GRISM: none}
# - {MODE: spectroscopic}
# - {DICHROIC: none}
# schema: astropy-2.0
WAV EFF EFF_UNC
6193.8 0.19007 0.00884
6197.32 0.19018 0.00881
6200.84 0.1903 0.00879
6204.8 0.19043 0.00876
6208.32 0.19055 0.00874
6211.84 0.19066 0.00871
6215.36 0.19077 0.00869
6218.88 0.19089 0.00867
6222.84 0.19101 0.00864
6226.36 0.19112 0.00862
6229.88 0.19123 0.0086
6233.4 0.19134 0.00857
6236.92 0.19145 0.00855
6240.44 0.19156 0.00853
6244.4 0.19168 0.00851
6247.92 0.19179 0.00848
6251.44 0.1919 0.00846
6254.96 0.192 0.00844
6258.48 0.19211 0.00842
6262.44 0.19222 0.0084
6265.96 0.19233 0.00838
6269.48 0.19243 0.00836
6273.0 0.19253 0.00834
6276.52 0.19263 0.00832
6280.48 0.19274 0.0083
6284.0 0.19283 0.00828
6287.52 0.19293 0.00827
6291.04 0.19302 0.00825
6294.56 0.19311 0.00823
6298.08 0.19321 0.00821
6302.04 0.19331 0.00819
6305.56 0.19341 0.00818
6309.08 0.1935 0.00816
6312.6 0.1936 0.00814
6316.12 0.19369 0.00813
6320.08 0.1938 0.00811
6323.6 0.19389 0.00809
6327.12 0.19399 0.00808
6330.64 0.19408 0.00806
6334.16 0.19417 0.00804
6338.12 0.19428 0.00803
6341.64 0.19437 0.00801
6345.16 0.19446 0.008
6348.68 0.19455 0.00798
6352.2 0.19463 0.00797
6355.72 0.19472 0.00795
6359.68 0.19481 0.00794
6363.2 0.1949 0.00792
6366.72 0.19498 0.00791
6370.24 0.19506 0.0079
6373.76 0.19514 0.00789
6377.72 0.19524 0.00787
6381.24 0.19532 0.00786
6384.76 0.19539 0.00785
6388.28 0.19547 0.00784
6391.8 0.19555 0.00782
6395.76 0.19564 0.00781
6399.28 0.19572 0.0078
6402.8 0.19579 0.00779
6406.32 0.19587 0.00778
6409.84 0.19594 0.00777
6413.36 0.19602 0.00776
6417.32 0.1961 0.00775
6420.84 0.19617 0.00774
6424.36 0.19624 0.00773
6427.88 0.19631 0.00772
6431.4 0.19638 0.00771
6435.36 0.19646 0.0077
6438.88 0.19653 0.00769
6442.4 0.1966 0.00768
6445.92 0.19667 0.00767
6449.44 0.19673 0.00766
6453.4 0.19681 0.00766
6456.92 0.19687 0.00765
6460.44 0.19694 0.00764
6463.96 0.197 0.00763
6467.48 0.19707 0.00762
6471.0 0.19713 0.00762
6474.96 0.1972 0.00761
6478.48 0.19726 0.0076
6482.0 0.19732 0.0076
6485.52 0.19738 0.00759
6489.04 0.19744 0.00758
6493.0 0.19751 0.00758
6496.52 0.19757 0.00757
6500.04 0.19762 0.00757
6503.56 0.19768 0.00756
6507.08 0.19774 0.00755
6511.04 0.1978 0.00755
6514.56 0.19785 0.00754
6518.08 0.19791 0.00754
6521.6 0.19796 0.00753
6525.12 0.19801 0.00753
6528.64 0.19806 0.00753
6532.6 0.19812 0.00752
6536.12 0.19817 0.00752
6539.64 0.19822 0.00751
6543.16 0.19827 0.00751
6546.68 0.19831 0.00751
6550.64 0.19836 0.0075
6554.16 0.1984 0.0075
6557.68 0.19844 0.0075
6561.2 0.19849 0.0075
6564.72 0.19853 0.00749
6568.68 0.19858 0.00749
6572.2 0.19862 0.00749
6575.72 0.19866 0.00749
6579.24 0.19871 0.00748
6582.76 0.19875 0.00748
6586.28 0.19879 0.00748
6590.24 0.19884 0.00748
6593.76 0.19888 0.00748
6597.28 0.19893 0.00747
6600.8 0.19897 0.00747
6604.32 0.19901 0.00747
6608.28 0.19906 0.00747
6611.8 0.1991 0.00747
6615.32 0.19914 0.00747
6618.84 0.19917 0.00746
6622.36 0.19921 0.00746
6626.32 0.19925 0.00746
6629.84 0.19928 0.00746
6633.36 0.19931 0.00746
6636.88 0.19935 0.00746
6640.4 0.19938 0.00746
6643.92 0.19941 0.00746
6647.88 0.19944 0.00746
6651.4 0.19947 0.00746
6654.92 0.1995 0.00746
6658.44 0.19953 0.00746
6661.96 0.19956 0.00746
6665.92 0.19959 0.00747
6669.44 0.19961 0.00747
6672.96 0.19964 0.00747
6676.48 0.19966 0.00747
6680.0 0.19969 0.00747
6683.96 0.19971 0.00747
6687.48 0.19974 0.00747
6691.0 0.19976 0.00747
6694.52 0.19978 0.00748
6698.04 0.1998 0.00748
6702.0 0.19983 0.00748
6705.52 0.19985 0.00748
6709.04 0.19987 0.00748
6712.56 0.19988 0.00749
6716.08 0.1999 0.00749
6719.6 0.19992 0.00749
6723.56 0.19994 0.00749
6727.08 0.19996 0.00749
6730.6 0.19997 0.0075
6734.12 0.19999 0.0075
6737.64 0.2 0.0075
6741.6 0.20002 0.00751
6745.12 0.20003 0.00751
6748.64 0.20004 0.00751
6752.16 0.20005 0.00751
6755.68 0.20006 0.00752
6759.64 0.20008 0.00752
6763.16 0.20009 0.00752
6766.68 0.20009 0.00753
6770.2 0.2001 0.00753
6773.72 0.20011 0.00753
6777.24 0.20012 0.00754
6781.2 0.20013 0.00754
6784.72 0.20013 0.00754
6788.24 0.20014 0.00755
6791.76 0.20014 0.00755
6795.28 0.20015 0.00756
6799.24 0.20015 0.00756
6802.76 0.20016 0.00756
6806.28 0.20016 0.00757
6809.8 0.20016 0.00757
6813.32 0.20016 0.00758
6817.28 0.20016 0.00758
6820.8 0.20016 0.00759
6824.32 0.20016 0.00759
6827.84 0.20016 0.00759
6831.36 0.20016 0.0076
6834.88 0.20016 0.0076
6838.84 0.20015 0.00761
6842.36 0.20013 0.00761
6845.88 0.20012 0.00762
6849.4 0.2001 0.00762
6852.92 0.20008 0.00763
6856.88 0.20006 0.00764
6860.4 0.20004 0.00764
6863.92 0.20002 0.00765
6867.44 0.2 0.00765
6870.96 0.19998 0.00766
6874.92 0.19996 0.00766
6878.44 0.19994 0.00767
6881.96 0.19992 0.00767
6885.48 0.1999 0.00768
6889.0 0.19988 0.00769
6892.52 0.19986 0.00769
6896.48 0.19984 0.0077
6900.0 0.19982 0.0077
6903.52 0.1998 0.00771
6907.04 0.19978 0.00771
6910.56 0.19976 0.00772
6914.52 0.19974 0.00773
6918.04 0.19972 0.00773
6921.56 0.1997 0.00774
6925.08 0.19968 0.00774
6928.6 0.19967 0.00775
6932.56 0.19964 0.00775
6936.08 0.19963 0.00776
6939.6 0.19961 0.00776
6943.12 0.19959 0.00777
6946.64 0.19957 0.00778
6950.16 0.19955 0.00778
6954.12 0.19953 0.00779
6957.64 0.19951 0.00779
6961.16 0.19949 0.0078
6964.68 0.19947 0.00781
6968.2 0.19945 0.00781
6972.16 0.19943 0.00782
6975.68 0.19941 0.00782
6979.2 0.19939 0.00783
6982.72 0.19937 0.00783
6986.24 0.19935 0.00784
6990.2 0.19933 0.00785
6993.72 0.19931 0.00785
6997.24 0.19929 0.00786
7000.76 0.19927 0.00786
7004.28 0.19925 0.00787
7007.8 0.19924 0.00788
7011.76 0.19921 0.00788
7015.28 0.1992 0.00789
7018.8 0.19918 0.00789
7022.32 0.19916 0.0079
7025.84 0.19914 0.00791
7029.8 0.19912 0.00791
7033.32 0.1991 0.00792
7036.84 0.19906 0.00792
7040.36 0.19903 0.00793
7043.88 0.19899 0.00794
7047.84 0.19895 0.00794
7051.36 0.19891 0.00795
7054.88 0.19888 0.00796
7058.4 0.19884 0.00796
7061.92 0.1988 0.00797
7065.44 0.19876 0.00798
7069.4 0.19871 0.00798
7072.92 0.19867 0.00799
7076.44 0.19863 0.008
7079.96 0.19859 0.008
7083.48 0.19855 0.00801
7087.44 0.1985 0.00802
7090.96 0.19846 0.00802
7094.48 0.19841 0.00803
7098.0 0.19837 0.00804
7101.52 0.19833 0.00804
7105.48 0.19827 0.00805
7109.0 0.19823 0.00806
7112.52 0.19818 0.00806
7116.04 0.19814 0.00807
7119.56 0.19809 0.00808
7123.52 0.19803 0.00808
7127.04 0.19799 0.00809
7130.56 0.19794 0.0081
7134.08 0.19789 0.0081
7137.6 0.19784 0.00811
7141.12 0.19779 0.00812
7145.08 0.19771 0.00812
7148.6 0.19764 0.00813
7152.12 0.19757 0.00814
7155.64 0.1975 0.00814
7159.16 0.19743 0.00815
7163.12 0.19735 0.00816
7166.64 0.19728 0.00816
7170.16 0.19721 0.00817
7173.68 0.19714 0.00818
7177.2 0.19707 0.00818
7181.16 0.19699 0.00819
7184.68 0.19693 0.0082
7188.2 0.19686 0.00821
7191.72 0.19679 0.00821
7195.24 0.19672 0.00822
7198.76 0.19665 0.00822
7202.72 0.19657 0.00823
7206.24 0.1965 0.00824
7209.76 0.19643 0.00825
7213.28 0.19636 0.00825
7216.8 0.19629 0.00826
7220.76 0.19621 0.00827
7224.28 0.19614 0.00827
7227.8 0.19607 0.00828
7231.32 0.196 0.00829
7234.84 0.19593 0.00829
7238.8 0.19586 0.0083
7242.32 0.19579 0.00831
7245.84 0.19572 0.00831
7249.36 0.19565 0.00832
7252.88 0.19558 0.00833
7256.4 0.19551 0.00833
7260.36 0.19543 0.00834
7263.88 0.19536 0.00835
7267.4 0.19529 0.00835
7270.92 0.19522 0.00836
7274.44 0.19515 0.00837
7278.4 0.19507 0.00837
7281.92 0.195 0.00838
7285.44 0.19493 0.00839
7288.96 0.19487 0.00839
7292.48 0.1948 0.0084
7296.44 0.19472 0.00841
7299.96 0.19465 0.00841
7303.48 0.19458 0.00842
7307.0 0.19451 0.00843
7310.52 0.19444 0.00843
7314.04 0.19437 0.00844
7318.0 0.19429 0.00845
7321.52 0.19422 0.00845
7325.04 0.19415 0.00846
7328.56 0.19408 0.00847
7332.08 0.19401 0.00847
7336.04 0.19394 0.00848
7339.56 0.19387 0.00849
7343.08 0.1938 0.00849
7346.6 0.19373 0.0085
7350.12 0.19366 0.00851
7354.08 0.19358 0.00851
7357.6 0.19351 0.00852
7361.12 0.19344 0.00853
7364.64 0.19337 0.00853
7368.16 0.1933 0.00854
7371.68 0.19323 0.00855
7375.64 0.19315 0.00856
7379.16 0.19308 0.00856
7382.68 0.19301 0.00857
7386.2 0.19294 0.00857
7389.72 0.19288 0.00858
7393.68 0.1928 0.00859
7397.2 0.19273 0.0086
7400.72 0.19266 0.0086
7404.24 0.19257 0.00861
7407.76 0.19248 0.00861
7411.72 0.19238 0.00862
7415.24 0.19229 0.00863
7418.76 0.1922 0.00863
7422.28 0.19211 0.00864
7425.8 0.19202 0.00865
7429.32 0.19193 0.00865
7433.28 0.19183 0.00866
7436.8 0.19174 0.00867
7440.32 0.19165 0.00867
7443.84 0.19155 0.00868
7447.36 0.19146 0.00868
7451.32 0.19135 0.00869
7454.84 0.19126 0.0087
7458.36 0.19116 0.0087
7461.88 0.19107 0.00871
7465.4 0.19097 0.00872
7469.36 0.19087 0.00872
7472.88 0.19077 0.00873
7476.4 0.19067 0.00874
7479.92 0.19057 0.00874
7483.44 0.19048 0.00875
7486.96 0.19038 0.00875
7490.92 0.19027 0.00876
7494.44 0.19017 0.00877
7497.96 0.19007 0.00877
7501.48 0.18997 0.00878
7505.0 0.18987 0.00878
7508.96 0.18975 0.00879
7512.48 0.18965 0.0088
7516.0 0.18955 0.0088
7519.52 0.18945 0.00881
7523.04 0.18935 0.00881
7527.0 0.18923 0.00882
7530.52 0.18912 0.00883
7534.04 0.18902 0.00883
7537.56 0.18892 0.00884
7541.08 0.18881 0.00884
7545.04 0.18869 0.00885
7548.56 0.18859 0.00886
7552.08 0.18848 0.00886
7555.6 0.18837 0.00887
7559.12 0.18827 0.00887
7562.64 0.18815 0.00888
7566.6 0.18801 0.00889
7570.12 0.1879 0.00889
7573.64 0.18778 0.0089
7577.16 0.18766 0.0089
7580.68 0.18754 0.00891
7584.64 0.18741 0.00891
7588.16 0.18729 0.00892
7591.68 0.18717 0.00892
7595.2 0.18705 0.00893
7598.72 0.18693 0.00893
7602.68 0.1868 0.00894
7606.2 0.18668 0.00894
7609.72 0.18656 0.00895
7613.24 0.18644 0.00895
7616.76 0.18633 0.00896
7620.28 0.18621 0.00896
7624.24 0.18607 0.00897
7627.76 0.18596 0.00897
7631.28 0.18584 0.00898
7634.8 0.18572 0.00898
7638.32 0.1856 0.00899
7642.28 0.18547 0.009
7645.8 0.18535 0.009
7649.32 0.18523 0.00901
7652.84 0.18511 0.00901
7656.36 0.18499 0.00902
7660.32 0.18486 0.00902
7663.84 0.18474 0.00903
7667.36 0.18462 0.00903
7670.88 0.1845 0.00904
7674.4 0.18439 0.00904
7677.92 0.18427 0.00905
7681.88 0.18413 0.00905
7685.4 0.18402 0.00906
7688.92 0.1839 0.00907
7692.44 0.18378 0.00907
7695.96 0.18366 0.00908
7699.92 0.18353 0.00908
7703.44 0.18341 0.00909
7706.96 0.18329 0.00909
7710.48 0.18317 0.0091
7714.0 0.18305 0.0091
7717.96 0.18292 0.00911
7721.48 0.1828 0.00911
7725.0 0.18268 0.00912
7728.52 0.18256 0.00912
7732.04 0.18245 0.00913
7735.56 0.18233 0.00914
7739.52 0.18219 0.00914
7743.04 0.18208 0.00915
7746.56 0.18195 0.00915
7750.08 0.18182 0.00916
7753.6 0.18169 0.00916
7757.56 0.18154 0.00917
7761.08 0.18141 0.00917
7764.6 0.18128 0.00917
7768.12 0.18115 0.00918
7771.64 0.18101 0.00918
7775.6 0.18087 0.00919
7779.12 0.18073 0.00919
7782.64 0.1806 0.0092
7786.16 0.18047 0.0092
7789.68 0.18033 0.00921
7793.2 0.1802 0.00921
7797.16 0.18005 0.00922
7800.68 0.17991 0.00922
7804.2 0.17978 0.00922
7807.72 0.17964 0.00923
7811.24 0.1795 0.00923
7815.2 0.17935 0.00924
7818.72 0.17921 0.00924
7822.24 0.17907 0.00925
7825.76 0.17894 0.00925
7829.28 0.1788 0.00925
7833.24 0.17864 0.00926
7836.76 0.1785 0.00926
7840.28 0.17836 0.00927
7843.8 0.17822 0.00927
7847.32 0.17808 0.00927
7850.84 0.17794 0.00928
7854.8 0.17779 0.00928
7858.32 0.17764 0.00929
7861.84 0.1775 0.00929
7865.36 0.17736 0.00929
7868.88 0.17722 0.0093
7872.84 0.17706 0.0093
7876.36 0.17692 0.0093
7879.88 0.17677 0.00931
7883.4 0.17663 0.00931
7886.92 0.17648 0.00932
7890.88 0.17632 0.00932
7894.4 0.17618 0.00932
7897.92 0.17603 0.00933
7901.44 0.17589 0.00933
7904.96 0.17574 0.00933
7908.48 0.17559 0.00934
7912.44 0.17543 0.00934
7915.96 0.17528 0.00934
7919.48 0.17513 0.00935
7923.0 0.17499 0.00935
7926.52 0.17484 0.00935
7930.48 0.17467 0.00936
7934.0 0.17452 0.00936
7937.52 0.17437 0.00936
7941.04 0.17422 0.00937
7944.56 0.17407 0.00937
7948.52 0.1739 0.00937
7952.04 0.17375 0.00937
7955.56 0.1736 0.00938
7959.08 0.17345 0.00938
7962.6 0.1733 0.00938
7966.12 0.17315 0.00939
7970.08 0.17298 0.00939
7973.6 0.17282 0.00939
7977.12 0.17267 0.00939
7980.64 0.17252 0.0094
7984.16 0.17236 0.0094
7988.12 0.17219 0.0094
7991.64 0.17203 0.00941
8005.28 0.17143 0.00941
8008.8 0.17128 0.00942
8012.32 0.17112 0.00942
8016.28 0.17094 0.00942
8019.8 0.17079 0.00942
8023.32 0.17063 0.00943
8026.84 0.17047 0.00943
8030.36 0.17031 0.00943
8034.32 0.17013 0.00943
8037.84 0.16998 0.00944
8041.36 0.16982 0.00944
8044.88 0.16966 0.00944
8048.4 0.1695 0.00944
8051.92 0.16934 0.00944
8055.88 0.16916 0.00944
8059.4 0.169 0.00945
8062.92 0.16883 0.00945
8066.44 0.16867 0.00945
8069.96 0.16851 0.00945
8073.92 0.16833 0.00945
8077.44 0.16817 0.00946
8080.96 0.168 0.00946
8084.48 0.16784 0.00946
8088.0 0.16768 0.00946
8091.96 0.16749 0.00946
8095.48 0.16733 0.00946
8099.0 0.16716 0.00946
8102.52 0.167 0.00946
8106.04 0.16683 0.00947
8109.56 0.16667 0.00947
8113.52 0.16648 0.00947
8117.04 0.16632 0.00947
8120.56 0.16615 0.00947
8124.08 0.16598 0.00947
8127.6 0.16582 0.00947
8131.56 0.16562 0.00947
8135.08 0.16544 0.00947
8138.6 0.16526 0.00947
8142.12 0.16508 0.00947
8145.64 0.16491 0.00947
8149.6 0.16471 0.00946
8153.12 0.16453 0.00946
8156.64 0.16435 0.00946
8160.16 0.16417 0.00946
8163.68 0.16399 0.00946
8167.2 0.16382 0.00946
8171.16 0.16362 0.00945
8174.68 0.16344 0.00945
8178.2 0.16326 0.00945
8181.72 0.16308 0.00945
8185.24 0.1629 0.00945
8189.2 0.1627 0.00945
8192.72 0.16253 0.00945
8196.24 0.16235 0.00945
8199.76 0.16217 0.00944
8203.28 0.16199 0.00944
8207.24 0.16179 0.00944
8210.76 0.16162 0.00944
8214.28 0.16144 0.00944
8217.8 0.16126 0.00944
8221.32 0.16108 0.00944
8224.84 0.1609 0.00943
8228.8 0.1607 0.00943
8232.32 0.16053 0.00943
8235.84 0.16035 0.00943
8239.36 0.16017 0.00943
8242.88 0.15999 0.00943
8246.84 0.15979 0.00943
8250.36 0.15961 0.00943
8253.88 0.15944 0.00943
8257.4 0.15926 0.00942
8260.92 0.15908 0.00942
8264.88 0.15888 0.00942
8268.4 0.1587 0.00942
8271.92 0.15853 0.00942
8275.44 0.15835 0.00942
8278.96 0.15817 0.00942
8282.48 0.15799 0.00942
8286.44 0.15779 0.00941
8289.96 0.15761 0.00941
8293.48 0.15744 0.00941
8297.0 0.15726 0.00941
8300.52 0.15708 0.00941
8304.48 0.15688 0.00941
8308.0 0.1567 0.00941
8311.52 0.15653 0.00941
8315.04 0.15635 0.00941
8318.56 0.15617 0.00941
8322.52 0.15597 0.0094
8326.04 0.15579 0.0094
8329.56 0.15561 0.0094
8333.08 0.15544 0.0094
8336.6 0.15526 0.0094
8340.12 0.15508 0.0094
8344.08 0.15488 0.0094
8347.6 0.1547 0.0094
8351.12 0.15452 0.0094
8354.64 0.15435 0.0094
8358.16 0.15417 0.0094
8362.12 0.15397 0.00939
8365.64 0.15379 0.00939
8369.16 0.15361 0.00939
8372.68 0.15344 0.00939
8376.2 0.15326 0.00939
8380.16 0.15306 0.00939
8383.68 0.15288 0.00939
8387.2 0.1527 0.00939
8390.72 0.15252 0.00939
8394.24 0.15234 0.00938
8397.76 0.15215 0.00938
8401.72 0.15194 0.00938
8405.24 0.15175 0.00937
8408.76 0.15156 0.00937
8412.28 0.15137 0.00937
8415.8 0.15118 0.00936
8419.76 0.15096 0.00936
8423.28 0.15077 0.00935
8426.8 0.15058 0.00935
8430.32 0.15039 0.00934
8433.84 0.1502 0.00934
8437.8 0.14999 0.00933
8441.32 0.1498 0.00933
8444.84 0.14961 0.00933
8448.36 0.14941 0.00932
8451.88 0.14922 0.00932
8455.84 0.14901 0.00931
8459.36 0.14881 0.00931
8462.88 0.14862 0.0093
8466.4 0.14843 0.0093
8469.92 0.14823 0.00929
8473.44 0.14804 0.00929
8477.4 0.14782 0.00928
8480.92 0.14763 0.00927
8484.44 0.14743 0.00927
8487.96 0.14724 0.00926
8491.48 0.14704 0.00926
8495.44 0.14683 0.00925
8498.96 0.14663 0.00925
8502.48 0.14644 0.00924
8506.0 0.14624 0.00923
8509.52 0.14604 0.00923
8513.48 0.14582 0.00922
8517.0 0.14563 0.00922
8520.52 0.14543 0.00921
8524.04 0.14523 0.0092
8527.56 0.14504 0.0092
8531.08 0.14484 0.00919
8535.04 0.14462 0.00918
8538.56 0.14442 0.00918
8542.08 0.14422 0.00917
8545.6 0.14402 0.00916
8549.12 0.14382 0.00916
8553.08 0.1436 0.00915
8556.6 0.1434 0.00914
8560.12 0.1432 0.00913
8563.64 0.143 0.00913
8567.16 0.1428 0.00912
8571.12 0.14258 0.00911
8574.64 0.14238 0.0091
8578.16 0.14218 0.00909
8581.68 0.14198 0.00909
8585.2 0.14178 0.00908
8588.72 0.14158 0.00907
8592.68 0.14135 0.00906
8596.2 0.14115 0.00905
8599.72 0.14095 0.00905
8603.24 0.14075 0.00904
8606.76 0.14055 0.00903
8610.72 0.14032 0.00902
8614.24 0.14012 0.00901
8617.76 0.13991 0.009
8621.28 0.13971 0.00899
8624.8 0.13951 0.00898
8628.76 0.13928 0.00897
8632.28 0.13908 0.00897
8635.8 0.13887 0.00896
8639.32 0.13867 0.00895
8642.84 0.13847 0.00894
8646.36 0.13826 0.00893
8650.32 0.13803 0.00892
8653.84 0.13783 0.00891
8657.36 0.13762 0.0089
8660.88 0.13742 0.00889
8664.4 0.13721 0.00888
8668.36 0.13698 0.00887
8671.88 0.13678 0.00886
8675.4 0.13657 0.00885
8678.92 0.13637 0.00884
8682.44 0.13616 0.00883
8686.4 0.13593 0.00881
8689.92 0.13572 0.0088
8693.44 0.13551 0.00879
8696.96 0.13531 0.00878
8700.48 0.1351 0.00877
8704.0 0.13489 0.00876
8707.96 0.13466 0.00875
8711.48 0.13445 0.00873
8715.0 0.13424 0.00872
8718.52 0.13404 0.00871
8722.04 0.13383 0.0087
8726.0 0.13359 0.00869
8729.52 0.13338 0.00868
8733.04 0.13318 0.00866
8736.56 0.13297 0.00865
8740.08 0.13276 0.00864
8744.04 0.13252 0.00863
8747.56 0.13231 0.00861
8751.08 0.1321 0.0086
8754.6 0.13189 0.00859
8758.12 0.13168 0.00858
8761.64 0.13147 0.00856
8765.6 0.13124 0.00855
8769.12 0.13103 0.00853
8772.64 0.13082 0.00852
8776.16 0.1306 0.00851
8779.68 0.13039 0.00849
8783.64 0.13016 0.00848
8787.16 0.12994 0.00847
8790.68 0.12973 0.00845
8794.2 0.12952 0.00844
8797.72 0.12931 0.00842
8801.68 0.12907 0.00841
8805.2 0.12886 0.00839
8808.72 0.12865 0.00838
8812.24 0.12843 0.00837
8815.76 0.12822 0.00835
8819.28 0.12801 0.00834
8823.24 0.12777 0.00832
8826.76 0.12755 0.0083
8830.28 0.12734 0.00829
8833.8 0.12713 0.00827
8837.32 0.12691 0.00826
8841.28 0.12667 0.00824
8844.8 0.12646 0.00823
8848.32 0.12625 0.00821
8851.84 0.12603 0.0082
8855.36 0.12582 0.00818
8859.32 0.12557 0.00816
8862.84 0.12536 0.00815
8866.36 0.12514 0.00813
8869.88 0.12493 0.00811
8873.4 0.12471 0.0081
8876.92 0.1245 0.00808
8880.88 0.12426 0.00806
8884.4 0.12404 0.00804
8887.92 0.12382 0.00803
8891.44 0.12361 0.00801
8894.96 0.12339 0.00799
8898.92 0.12315 0.00797
8902.44 0.12293 0.00796
8905.96 0.12272 0.00794
8909.48 0.1225 0.00792
8913.0 0.12228 0.0079
8916.96 0.12204 0.00788
8920.48 0.12182 0.00786
8924.0 0.1216 0.00785
8927.52 0.12139 0.00783
8931.04 0.12117 0.00781
8935.0 0.12092 0.00779
8938.52 0.12071 0.00777
8942.04 0.12049 0.00775
8945.56 0.12027 0.00773
8949.08 0.12005 0.00771
8952.6 0.11983 0.00769
8956.56 0.11959 0.00767
8960.08 0.11937 0.00765
8963.6 0.11915 0.00763
8967.12 0.11893 0.00761
8970.64 0.11871 0.00759
8974.6 0.11846 0.00756
8978.12 0.11824 0.00754
8981.64 0.11802 0.00752
8985.16 0.1178 0.0075
8988.68 0.11757 0.00747
8992.64 0.11732 0.00745
8996.16 0.1171 0.00743
8999.68 0.11688 0.0074
9003.2 0.11666 0.00738
9006.72 0.11644 0.00736
9010.24 0.11622 0.00734
9014.2 0.11597 0.00731
9017.72 0.11575 0.00729
9021.24 0.11553 0.00727
9024.76 0.11531 0.00724
9028.28 0.11508 0.00722
9032.24 0.11483 0.0072
9035.76 0.11461 0.00717
9039.28 0.11439 0.00715
9042.8 0.11417 0.00713
9046.32 0.11395 0.00711
9050.28 0.1137 0.00708
9053.8 0.11348 0.00706
9057.32 0.11326 0.00704
9060.84 0.11304 0.00702
9064.36 0.11282 0.00699
9067.88 0.11259 0.00697
9071.84 0.11234 0.00695
9075.36 0.11212 0.00692
9078.88 0.1119 0.0069
9082.4 0.11168 0.00688
9085.92 0.11146 0.00686
9089.88 0.11121 0.00683
9093.4 0.11099 0.00681
9096.92 0.11077 0.00679
9100.44 0.11054 0.00676
9103.96 0.11032 0.00674
9107.92 0.11007 0.00671
9111.44 0.10984 0.00668
9114.96 0.10962 0.00665
9118.48 0.10939 0.00662
9122.0 0.10917 0.00659
9125.52 0.10894 0.00656
9129.48 0.10869 0.00653
9133.0 0.10846 0.0065
9136.52 0.10823 0.00647
9140.04 0.10801 0.00644
9143.56 0.10778 0.00641
9147.52 0.10753 0.00638
9151.04 0.1073 0.00635
9154.56 0.10708 0.00632
9158.08 0.10685 0.00629
9161.6 0.10663 0.00626
9165.56 0.10637 0.00623
9169.08 0.10615 0.0062
9172.6 0.10592 0.00617
9176.12 0.10569 0.00614
9179.64 0.10547 0.00612
9183.16 0.10524 0.00609
9187.12 0.10499 0.00605
9190.64 0.10476 0.00602
9194.16 0.10454 0.006
9197.68 0.10431 0.00597
9201.2 0.10409 0.00594
9205.16 0.10383 0.00591
9208.68 0.10361 0.00588
9212.2 0.10338 0.00585
9215.72 0.10315 0.00582
9219.24 0.10293 0.00579
9223.2 0.10267 0.00576
9226.72 0.10245 0.00573
9230.24 0.10222 0.0057
9233.76 0.102 0.00567
9237.28 0.10177 0.00564
9240.8 0.10155 0.00561
9244.76 0.10129 0.00558
9248.28 0.10107 0.00555
9251.8 0.10084 0.00552
9255.32 0.10061 0.00549
9258.84 0.10039 0.00546
9262.8 0.10013 0.00543
9266.32 0.09991 0.0054
9269.84 0.09968 0.00538
9273.36 0.09946 0.00535
9276.88 0.09923 0.00531
9280.84 0.09897 0.00528
9284.36 0.09875 0.00524
9287.88 0.09852 0.00521
9291.4 0.09829 0.00518
9294.92 0.09806 0.00514
9298.44 0.09783 0.00511
9302.4 0.09758 0.00507
9305.92 0.09735 0.00504
9309.44 0.09712 0.005
9312.96 0.09689 0.00497
9316.48 0.09666 0.00493
9320.44 0.09641 0.0049
9323.96 0.09618 0.00486
9327.48 0.09595 0.00483
9331.0 0.09572 0.00479
9334.52 0.09549 0.00475
9338.48 0.09524 0.00471
9342.0 0.09501 0.00468
9345.52 0.09478 0.00464
9349.04 0.09455 0.00461
9352.56 0.09432 0.00457
9356.52 0.09406 0.00453
9360.04 0.09383 0.00449
9363.56 0.09361 0.00446
9367.08 0.09338 0.00442
9370.6 0.09315 0.00438
9374.12 0.09292 0.00434
9378.08 0.09266 0.0043
9381.6 0.09243 0.00426
9385.12 0.0922 0.00423
9388.64 0.09197 0.00419
9392.16 0.09174 0.00415
9396.12 0.09148 0.00411
9399.64 0.09126 0.00407
9403.16 0.09103 0.00403
9406.68 0.0908 0.00399
9410.2 0.09057 0.00395
9414.16 0.09031 0.00391
9417.68 0.09008 0.00387
9421.2 0.08985 0.00383
9424.72 0.08962 0.00379
9428.24 0.08939 0.00375
9431.76 0.08916 0.00371
9435.72 0.0889 0.00367
9439.24 0.08867 0.00363
9442.76 0.08844 0.00358
9446.28 0.08821 0.00354
9449.8 0.08798 0.0035
9453.76 0.08772 0.00346
9457.28 0.08749 0.00342
9460.8 0.08726 0.00338
9464.32 0.08703 0.00333
9467.84 0.0868 0.00329
9471.8 0.08654 0.00325
9475.32 0.08631 0.0032
9478.84 0.08608 0.00316
9482.36 0.08585 0.00312
9485.88 0.08562 0.00308
9489.4 0.08539 0.00303
9493.36 0.08513 0.00299
9496.88 0.0849 0.00294
9500.4 0.08467 0.0029
9503.92 0.08444 0.00286
9507.44 0.08421 0.00281
9511.4 0.08395 0.00277
9514.92 0.08372 0.00272
9518.44 0.08349 0.00268
9521.96 0.08326 0.00263
9525.48 0.08303 0.00259
9529.44 0.08277 0.00254
9532.96 0.08254 0.0025
9536.48 0.08231 0.00245
9540.0 0.08208 0.00241
9543.52 0.08185 0.00236
9547.04 0.08162 0.00232
9551.0 0.08136 0.00227
9554.52 0.08113 0.00223
9558.04 0.0809 0.00218
9561.56 0.08067 0.00214
9565.08 0.08044 0.00209
9569.04 0.08018 0.00204
9572.56 0.07995 0.002
9576.08 0.07972 0.00195
9579.6 0.07949 0.00191
9583.12 0.07926 0.00186
9587.08 0.079 0.00181
9590.6 0.07877 0.00177
9594.12 0.07854 0.00172
9597.64 0.07831 0.00168
9601.16 0.07808 0.00163
9604.68 0.07785 0.00159
9608.64 0.07759 0.00154
9612.16 0.07736 0.0015
9615.68 0.07713 0.00145
9619.2 0.07689 0.00141
9622.72 0.07666 0.00137
9626.68 0.07641 0.00132
9630.2 0.07617 0.00128
9633.72 0.07594 0.00124
9637.24 0.07571 0.0012
9640.76 0.07548 0.00116
9644.72 0.07522 0.00112
9648.24 0.07499 0.00108
9651.76 0.07476 0.00104
9655.28 0.07453 0.00101
9658.8 0.0743 0.00098
9662.32 0.07407 0.00095
9666.28 0.07381 0.00091
9669.8 0.07358 0.00089
9673.32 0.07335 0.00086
9676.84 0.07312 0.00084
9680.36 0.07289 0.00082
9684.32 0.07263 0.00081
9687.84 0.0724 0.0008
9691.36 0.07217 0.00079
9694.88 0.07194 0.00079
9698.4 0.07171 0.00079
9702.36 0.07145 0.00079
9705.88 0.07122 0.0008
9709.4 0.07099 0.00082
9712.92 0.07076 0.00083
9716.44 0.07053 0.00085
9719.96 0.0703 0.00088
9723.92 0.07004 0.00091
9727.44 0.06981 0.00094
9730.96 0.06958 0.00097
9734.48 0.06935 0.00101
9738.0 0.06912 0.00104
9741.96 0.06887 0.00109
9745.48 0.06864 0.00113
9749.0 0.06841 0.00117
9752.52 0.06818 0.00122
9756.04 0.06795 0.00126
9760.0 0.06769 0.00132
9763.52 0.06746 0.00137
9767.04 0.06723 0.00142
9770.56 0.067 0.00147
9774.08 0.06677 0.00152
9777.6 0.06654 0.00157
9781.56 0.06628 0.00163
9785.08 0.06605 0.00169
9788.6 0.06582 0.00174
9792.12 0.0656 0.0018
9795.64 0.06537 0.00185
9799.6 0.06511 0.00192
